

# No analyzer present
# Scan parameters: power 16.000000 dBm, bandwidth 1.500000 Hz
# Frequency [MHz]	avg noise	std noise	peak value
3400.000000	0.012848	0.012514	0.173648
3402.000000	0.012300	0.012941	0.282826
3404.000000	0.012745	0.012641	0.158701
3406.000000	0.013364	0.012221	0.302384
3408.000000	0.013992	0.014175	0.434808
3410.000000	0.023204	0.025926	0.581812
3412.000000	0.016725	0.016351	0.206302
3414.000000	0.016515	0.016638	0.225994
3416.000000	0.030570	0.027887	0.402941
3418.000000	0.114278	0.109914	1.012926
3420.000000	0.028747	0.028997	0.452898
3422.000000	0.027991	0.027347	0.358457
3424.000000	0.027934	0.026864	0.259702
3426.000000	0.039796	0.040355	0.304594
3428.000000	0.041167	0.040565	0.207642
3430.000000	0.045424	0.043275	0.772773
3432.000000	0.037757	0.038765	0.824355
3434.000000	0.051947	0.056024	0.592568
3436.000000	0.108866	0.109239	0.731235
3438.000000	0.101075	0.110440	0.503081
3440.000000	0.081518	0.076957	0.426052
3442.000000	0.076527	0.080293	0.380976
3444.000000	0.147663	0.130418	1.255167
3446.000000	0.141282	0.128394	0.851257
3448.000000	0.097099	0.092126	0.577703
3450.000000	0.072631	0.071945	0.859239
3452.000000	0.071468	0.066817	0.341340
3454.000000	0.063927	0.054498	0.402578
3456.000000	0.082014	0.088900	0.653311
3458.000000	0.190151	0.186227	0.567677
3460.000000	0.306450	0.319376	1.888164
3462.000000	0.692665	0.673157	3.044042
3464.000000	0.396208	0.405790	1.992909
3466.000000	0.168048	0.172429	1.284550
3468.000000	0.347143	0.301016	2.174473
3470.000000	0.303651	0.284002	2.742914
3472.000000	0.250404	0.237048	4.005113
3474.000000	0.075636	0.073288	1.720633
3476.000000	0.099040	0.106507	0.875271
3478.000000	0.085834	0.097840	0.744788
3480.000000	0.072576	0.069202	0.432474
3482.000000	0.054430	0.062262	0.521237
3484.000000	0.078302	0.073538	0.341095
3486.000000	0.045808	0.045372	0.375402
3488.000000	0.059539	0.056729	0.654475
3490.000000	0.060554	0.058391	0.834773
3492.000000	0.046968	0.044263	0.300348
3494.000000	0.038755	0.036724	0.505829
3496.000000	0.051676	0.048967	0.323259
3498.000000	0.037804	0.039653	0.221927
3500.000000	0.032773	0.038116	0.660450
3502.000000	0.029895	0.031048	0.477652
3504.000000	0.038768	0.039050	0.417093
3506.000000	0.022865	0.023706	0.386113
3508.000000	0.021375	0.021762	0.411030
3510.000000	0.020727	0.021126	0.314005
3512.000000	0.023854	0.022196	0.187468
3514.000000	0.029329	0.028518	0.425720
3516.000000	0.024491	0.025694	0.215405
3518.000000	0.020540	0.020875	0.276837
3520.000000	0.028108	0.026438	0.113157
3522.000000	0.064872	0.070754	0.407521
3524.000000	0.024980	0.022918	0.471286
3526.000000	0.033721	0.032422	0.290442
3528.000000	0.043684	0.044305	0.725031
3530.000000	0.059271	0.050768	0.859451
3532.000000	0.441522	0.419617	1.777940
3534.000000	0.369177	0.343347	1.576582
3536.000000	0.464751	0.456063	1.580912
3538.000000	0.258489	0.260285	2.797988
3540.000000	0.581386	0.535546	2.212953
3542.000000	0.658587	0.668003	3.157572
3544.000000	0.961659	0.930317	6.272319
3546.000000	1.002741	0.999377	3.591934
3548.000000	0.937363	1.035824	2.907610
3550.000000	0.554466	0.579705	3.074954
3552.000000	0.863098	0.758859	3.606464
3554.000000	0.476990	0.483898	5.023944
3556.000000	0.363650	0.357690	1.399133
3558.000000	0.844564	0.836828	2.851173
3560.000000	0.890944	0.726925	5.477358
3562.000000	0.304166	0.298167	1.912363
3564.000000	0.298176	0.320486	1.401565
3566.000000	0.468554	0.460053	2.583368
3568.000000	0.333547	0.323932	1.292046
3570.000000	0.535502	0.531917	1.956946
3572.000000	0.408546	0.478465	1.843367
3574.000000	0.384588	0.445529	1.821026
3576.000000	0.257407	0.249157	1.942094
3578.000000	0.204640	0.199810	1.739286
3580.000000	0.524163	0.503608	1.830169
3582.000000	0.522896	0.621019	3.135520
3584.000000	0.484363	0.539778	2.167358
3586.000000	0.420269	0.369922	1.433263
3588.000000	0.305120	0.299966	1.509448
3590.000000	0.311941	0.273687	1.074388
3592.000000	0.532078	0.564513	1.536944
3594.000000	0.279885	0.253284	2.358420
3596.000000	0.367241	0.403943	2.463774
3598.000000	0.466251	0.473933	1.420428
3600.000000	0.170731	0.173153	1.347098
3602.000000	0.194724	0.209084	0.888748
3604.000000	0.149495	0.144034	0.710182
3606.000000	0.271537	0.271509	1.592604
3608.000000	0.187418	0.166332	1.485033
3610.000000	0.264228	0.245710	0.810347
3612.000000	0.242113	0.298903	2.673204
3614.000000	0.185136	0.187437	0.678322
3616.000000	0.180695	0.184119	1.430561
3618.000000	0.192871	0.195989	1.576640
3620.000000	0.103199	0.098167	1.571039
3622.000000	0.087215	0.084815	0.623794
3624.000000	0.093537	0.100684	0.599032
3626.000000	0.088964	0.082790	0.724833
3628.000000	0.127790	0.106051	1.032129
3630.000000	0.194929	0.197584	1.056038
3632.000000	0.312032	0.328936	1.214150
3634.000000	0.328521	0.309958	2.941780
3636.000000	0.596113	0.578142	2.561650
3638.000000	0.856139	0.867685	4.956247
3640.000000	1.988555	1.893531	9.167361
3642.000000	2.066170	1.983674	12.228720
3644.000000	2.335730	2.656001	7.140109
3646.000000	3.646571	3.559637	25.736368
3648.000000	1.180694	1.135481	5.006313
3650.000000	2.579500	2.649842	14.321509
3652.000000	3.587213	3.493334	34.586807
3654.000000	2.833212	2.857568	24.848361
3656.000000	1.927791	1.920784	6.822587
3658.000000	1.619922	1.794872	9.848339
3660.000000	2.172254	2.000116	7.371548
3662.000000	1.820136	1.576387	13.207007
3664.000000	2.113336	2.024994	8.994988
3666.000000	1.730977	1.841192	19.274575
3668.000000	1.798028	1.862516	20.694174
3670.000000	1.666201	1.650403	12.842569
3672.000000	1.820184	1.792744	23.251106
3674.000000	2.673512	2.451548	24.136211
3676.000000	2.725769	2.982195	26.933847
3678.000000	3.493318	3.558800	37.634303
3680.000000	2.866938	2.801519	15.316803
3682.000000	2.720526	2.550621	11.859490
3684.000000	3.024124	3.049854	36.124482
3686.000000	2.027067	1.967627	34.342647
3688.000000	1.685500	1.535404	46.655136
3690.000000	2.041759	1.915848	12.189972
3692.000000	1.909118	1.799502	17.021035
3694.000000	1.615960	1.692644	27.905928
3696.000000	1.525747	1.556712	25.274027
3698.000000	2.269549	2.473140	20.681028
3700.000000	1.655339	1.560582	25.615001
3702.000000	1.555600	1.575003	35.511141
3704.000000	1.272501	1.187515	27.227030
3706.000000	1.108393	1.126562	36.711891
3708.000000	0.853891	0.776749	47.096276
3710.000000	0.813284	0.780891	36.783605
3712.000000	0.627071	0.566683	16.181582
3714.000000	0.500898	0.533705	41.523832
3716.000000	0.474695	0.501676	48.404449
3718.000000	0.355693	0.367361	44.817535
3720.000000	0.331278	0.334133	31.459579
3722.000000	0.303865	0.315089	61.885235
3724.000000	0.263153	0.243817	51.675997
3726.000000	0.224025	0.230245	20.316059
3728.000000	0.195546	0.202640	33.261860
3730.000000	0.174993	0.161320	32.126442
3732.000000	0.164579	0.167553	25.487017
3734.000000	0.163960	0.146343	6.744030
3736.000000	0.151958	0.154656	14.216391
3738.000000	0.156763	0.155838	27.853586
3740.000000	0.177771	0.190818	18.411148
3742.000000	0.298882	0.283992	15.651162
3744.000000	0.524951	0.552474	27.856259
3746.000000	0.764005	0.728306	15.560750
3748.000000	1.604988	1.601396	13.015185
3750.000000	2.065480	2.100778	21.179151
3752.000000	1.881861	1.936920	28.333239
3754.000000	2.133857	2.069431	13.102320
3756.000000	2.201355	2.083047	36.368549
3758.000000	1.539422	1.403596	9.860529
3760.000000	2.387593	2.483231	35.751582
3762.000000	1.422716	1.341848	15.191239
3764.000000	1.446312	1.330247	9.429727
3766.000000	1.460621	1.515385	21.914659
3768.000000	1.180345	1.096292	8.293499
3770.000000	1.263103	1.236548	5.277972
3772.000000	1.328931	1.395139	7.239326
3774.000000	1.323719	1.402321	14.662734
3776.000000	1.595884	1.740094	12.744019
3778.000000	1.764317	1.872535	18.135876
3780.000000	1.103556	1.336907	10.005590
3782.000000	0.763512	0.718999	11.730773
3784.000000	1.264409	1.257252	6.561094
3786.000000	2.300515	2.289229	15.940593
3788.000000	1.500668	1.468052	6.102135
3790.000000	0.742648	0.753293	7.246394
3792.000000	0.808998	0.829496	6.900188
3794.000000	0.786730	0.755544	3.060290
3796.000000	1.033377	1.048784	5.938176
3798.000000	0.758437	0.898187	3.602877
3800.000000	0.688118	0.610768	3.953351
3802.000000	0.832624	0.824945	3.496225
3804.000000	0.625780	0.649759	3.290794
3806.000000	0.494474	0.551255	2.308300
3808.000000	0.495999	0.493499	4.173164
3810.000000	0.358095	0.373012	2.514125
3812.000000	0.394260	0.427945	4.758658
3814.000000	0.354355	0.331761	9.465582
3816.000000	0.412500	0.435367	20.845605
3818.000000	0.418236	0.424886	8.566480
3820.000000	0.461015	0.451123	6.050444
3822.000000	0.459739	0.428470	2.509780
3824.000000	0.490447	0.492268	2.085336
3826.000000	0.453616	0.462852	2.107903
3828.000000	0.310314	0.286790	2.790244
3830.000000	0.210419	0.224558	1.271273
3832.000000	0.216912	0.223092	5.366829
3834.000000	0.173619	0.169662	0.923695
3836.000000	0.150085	0.129788	0.779113
3838.000000	0.151807	0.148434	3.333688
3840.000000	0.160943	0.171154	1.351652
3842.000000	0.189100	0.204596	1.396570
3844.000000	0.209141	0.208666	3.595769
3846.000000	0.199679	0.166490	1.787654
3848.000000	0.219136	0.238508	2.158494
3850.000000	0.258235	0.274826	5.326042
3852.000000	0.373321	0.357677	7.312957
3854.000000	0.476933	0.484284	6.601141
3856.000000	0.377640	0.350571	3.884525
3858.000000	0.930502	0.924218	7.039336
3860.000000	1.336254	1.357266	10.232453
3862.000000	1.483453	1.524869	9.242335
3864.000000	1.441768	1.442338	6.963070
3866.000000	1.443064	1.337911	7.698269
3868.000000	1.695692	1.858586	10.404726
3870.000000	1.972306	2.232006	7.671527
3872.000000	1.019989	0.993542	5.080730
3874.000000	0.866197	0.840749	8.103002
3876.000000	0.891110	0.992477	6.454155
3878.000000	1.100261	1.059563	9.316747
3880.000000	1.160590	1.081125	21.531559
3882.000000	0.880512	0.963335	11.586428
3884.000000	0.723638	0.853147	12.070358
3886.000000	0.849435	0.841397	5.758849
3888.000000	0.801964	0.810783	6.623059
3890.000000	0.803535	0.880514	11.161122
3892.000000	0.679338	0.665052	27.137013
3894.000000	0.554036	0.497624	58.035302
3896.000000	0.603230	0.650333	86.648816
3898.000000	0.630732	0.650286	55.949478
3900.000000	0.559486	0.546501	64.877131
3902.000000	0.690430	0.750309	61.566204
3904.000000	0.571428	0.552586	40.948722
3906.000000	0.658655	0.660203	38.991508
3908.000000	0.598184	0.569083	69.341058
3910.000000	0.644317	0.656665	40.284085
3912.000000	0.724536	0.787165	17.777361
3914.000000	0.696428	0.679027	44.017308
3916.000000	0.561950	0.556779	53.412237
3918.000000	0.545582	0.528563	12.339328
3920.000000	0.585954	0.565105	5.612963
3922.000000	0.510683	0.501069	57.090298
3924.000000	0.548688	0.543111	54.853654
3926.000000	0.506902	0.491007	20.564357
3928.000000	0.501736	0.474494	30.391676
3930.000000	0.419059	0.390193	52.525528
3932.000000	0.441029	0.414666	94.612845
3934.000000	0.434737	0.458257	25.826938
3936.000000	0.394498	0.371314	72.959241
3938.000000	0.414612	0.420761	86.884841
3940.000000	0.347097	0.334704	63.028129
3942.000000	0.312790	0.305387	51.599791
3944.000000	0.362117	0.353704	37.484704
3946.000000	0.361864	0.366582	42.945877
3948.000000	0.398821	0.372282	13.077123
3950.000000	0.351729	0.331858	21.594144
3952.000000	0.378044	0.381194	21.652019
3954.000000	0.355401	0.340431	5.634125
3956.000000	0.325125	0.301288	5.242462
3958.000000	0.415418	0.412242	25.483045
3960.000000	0.441278	0.420624	69.240992
3962.000000	0.545790	0.490460	37.019759
3964.000000	0.400131	0.351873	59.801265
3966.000000	0.465702	0.484888	111.452199
3968.000000	0.492643	0.460318	100.392618
3970.000000	0.567251	0.518333	35.612598
3972.000000	0.677600	0.704128	61.545848
3974.000000	0.656454	0.666057	71.064166
3976.000000	1.112158	1.059789	55.632070
3978.000000	0.972460	1.097862	116.621574
3980.000000	1.159126	1.141288	162.748100
3982.000000	0.894534	0.789092	124.867269
3984.000000	1.090788	1.099230	76.705807
3986.000000	1.011145	0.971504	234.451569
3988.000000	0.944318	0.947300	192.275309
3990.000000	0.998240	1.023446	118.379528
3992.000000	0.918734	0.920993	67.938336
3994.000000	0.750756	0.726525	130.328197
3996.000000	0.907808	0.844577	103.215741
3998.000000	0.998507	0.941121	47.214775
4000.000000	1.022426	0.990440	100.568562
4002.000000	1.188996	1.199993	78.850421
4004.000000	0.935140	0.890070	23.054575
4006.000000	1.094529	1.092695	51.561008
4008.000000	1.083997	1.016212	66.427912
4010.000000	0.931083	0.950420	29.795489
4012.000000	0.997402	1.135605	22.245254
4014.000000	0.862326	0.832878	38.079054
4016.000000	0.914535	0.837264	29.999971
4018.000000	1.010335	1.003921	7.358283
4020.000000	0.937867	0.936820	18.721209
4022.000000	0.957927	0.842624	6.785968
4024.000000	0.850975	0.747776	12.717026
4026.000000	0.882125	0.783319	6.256111
4028.000000	1.110237	1.150062	10.906379
4030.000000	1.135049	1.168496	7.866508
4032.000000	0.924357	0.906351	7.652399
4034.000000	1.128385	1.160858	8.566764
4036.000000	1.029535	0.854163	8.041843
4038.000000	1.298588	1.335410	7.447101
4040.000000	1.213105	1.105757	5.696646
4042.000000	1.227742	1.269198	6.692545
4044.000000	1.291611	1.397621	6.920286
4046.000000	1.152141	1.010599	20.108277
4048.000000	1.489263	1.335422	17.411484
4050.000000	1.347698	1.370487	21.102149
4052.000000	1.321779	1.336609	24.264943
4054.000000	1.308963	1.326094	36.809446
4056.000000	1.871973	1.631985	16.692473
4058.000000	1.875078	1.771201	32.549945
4060.000000	1.935761	1.933924	30.755492
4062.000000	1.794470	1.671725	32.345119
4064.000000	1.988527	1.811292	24.132665
4066.000000	2.108021	2.305717	92.762935
4068.000000	2.030780	2.169425	32.085423
4070.000000	1.966429	2.040022	24.064000
4072.000000	1.930025	1.889153	17.385507
4074.000000	1.977368	2.011411	12.179170
4076.000000	2.001954	1.895383	9.604379
4078.000000	1.724795	1.737201	12.283292
4080.000000	1.970911	1.815042	7.972329
4082.000000	1.463330	1.384584	20.991288
4084.000000	1.387317	1.303145	5.535456
4086.000000	1.916737	1.858647	6.607075
4088.000000	1.435251	1.421403	5.341111
4090.000000	1.444533	1.446544	8.495294
4092.000000	1.748554	1.752094	19.261443
4094.000000	1.692797	1.737897	7.705206
4096.000000	1.614005	1.753174	29.862841
4098.000000	1.383071	1.383383	8.097482
4100.000000	1.690533	1.655329	22.992346
4102.000000	1.243832	1.207468	19.318311
4104.000000	1.151532	1.093594	12.964987
4106.000000	1.442670	1.368415	17.922031
4108.000000	1.373963	1.375344	18.580522
4110.000000	1.254215	1.192513	21.419196
4112.000000	1.009267	1.042696	16.143035
4114.000000	1.056605	1.065401	7.071651
4116.000000	1.277701	1.408143	11.557126
4118.000000	0.818476	0.761048	17.632834
4120.000000	0.761927	0.756457	21.601697
4122.000000	1.017385	0.978604	34.025375
4124.000000	0.758957	0.775271	59.967947
4126.000000	1.088183	1.081359	30.805999
4128.000000	0.794370	0.759603	56.394706
4130.000000	0.605139	0.643855	74.514559
4132.000000	0.587385	0.623646	75.904934
4134.000000	0.506865	0.495498	34.859093
4136.000000	0.474399	0.441990	20.475309
4138.000000	0.434544	0.406638	11.827957
4140.000000	0.322640	0.321560	4.372883
4142.000000	0.223021	0.229562	2.802220
4144.000000	0.323684	0.318744	34.049749
4146.000000	0.289175	0.299677	25.288724
4148.000000	0.249340	0.215108	11.632400
4150.000000	0.164035	0.172862	49.059049
4152.000000	0.233601	0.226097	38.866080
4154.000000	0.215478	0.220117	23.919027
4156.000000	0.240986	0.245497	54.753836
4158.000000	0.166201	0.178371	117.752636
4160.000000	0.168588	0.173346	121.175621
4162.000000	0.157350	0.152765	74.284775
4164.000000	0.165239	0.182474	184.182646
4166.000000	0.152518	0.130746	306.767508
4168.000000	0.152139	0.153093	210.264743
4170.000000	0.132842	0.129665	126.949071
4172.000000	0.140188	0.130895	170.473898
4174.000000	0.136396	0.129839	143.700716
4176.000000	0.120082	0.115191	54.311966
4178.000000	0.115840	0.104208	62.291040
4180.000000	0.149747	0.133684	100.416236
4182.000000	0.134369	0.153289	92.976355
4184.000000	0.158113	0.155217	50.894079
4186.000000	0.167863	0.160212	80.143350
4188.000000	0.143803	0.141708	107.697190
4190.000000	0.139081	0.147476	115.284164
4192.000000	0.159178	0.149282	160.082328
4194.000000	0.177894	0.166210	258.398723
4196.000000	0.148030	0.148486	291.226528
4198.000000	0.145885	0.149780	115.447410
4200.000000	0.120456	0.108638	205.042055
4202.000000	0.138419	0.138111	130.754156
4204.000000	0.145390	0.137397	67.629586
4206.000000	0.172287	0.161152	65.460616
4208.000000	0.127008	0.140745	71.421755
4210.000000	0.147353	0.130204	40.345191
4212.000000	0.182834	0.200174	51.159348
4214.000000	0.186160	0.186079	85.201521
4216.000000	0.140440	0.147393	167.211610
4218.000000	0.212359	0.199173	179.951738
4220.000000	0.168040	0.193886	135.716496
4222.000000	0.157814	0.147723	211.649441
4224.000000	0.136567	0.136009	236.330353
4226.000000	0.100332	0.102570	155.639908
4228.000000	0.104442	0.109377	98.787041
4230.000000	0.090472	0.083043	91.419258
4232.000000	0.101206	0.093745	130.501789
4234.000000	0.131329	0.130958	58.974747
4236.000000	0.091333	0.081760	120.280018
4238.000000	0.079321	0.068694	86.941383
4240.000000	0.104276	0.099467	58.125808
4242.000000	0.117329	0.122912	38.897045
4244.000000	0.107752	0.105574	15.235320
4246.000000	0.098787	0.097747	10.990572
4248.000000	0.113207	0.101371	1.600224
4250.000000	0.115696	0.107748	30.421799
4252.000000	0.125184	0.127023	45.046499
4254.000000	0.122374	0.135899	84.764484
4256.000000	0.131987	0.129041	55.945884
4258.000000	0.115535	0.106235	92.610547
4260.000000	0.154219	0.147574	86.234051
4262.000000	0.141744	0.157172	70.331501
4264.000000	0.147193	0.153940	115.891783
4266.000000	0.125621	0.130764	106.384705
4268.000000	0.152829	0.150179	89.513953
4270.000000	0.115901	0.112313	71.469445
4272.000000	0.162096	0.170577	90.289471
4274.000000	0.162966	0.162600	80.866515
4276.000000	0.178032	0.190627	83.439679
4278.000000	0.171701	0.170839	67.772500
4280.000000	0.181041	0.181461	65.636690
4282.000000	0.221321	0.211206	26.555051
4284.000000	0.242389	0.277925	13.141987
4286.000000	0.207925	0.195678	24.562418
4288.000000	0.156908	0.159202	20.883923
4290.000000	0.154073	0.150880	16.686044
4292.000000	0.135082	0.133552	21.905653
4294.000000	0.175723	0.162231	37.394205
4296.000000	0.174804	0.187085	45.444552
4298.000000	0.162297	0.172503	37.991733
4300.000000	0.153596	0.146361	41.360483
4302.000000	0.153908	0.157940	39.009693
4304.000000	0.118086	0.109626	46.761638
4306.000000	0.119318	0.119643	24.498717
4308.000000	0.147823	0.158458	35.081555
4310.000000	0.138654	0.145995	24.007555
4312.000000	0.131584	0.118323	8.998560
4314.000000	0.141625	0.142518	17.898285
4316.000000	0.145727	0.138044	23.991070
4318.000000	0.169963	0.181334	15.586385
4320.000000	0.171539	0.172137	13.234124
4322.000000	0.079867	0.074627	13.353566
4324.000000	0.117631	0.111805	22.405113
4326.000000	0.102324	0.089003	25.100884
4328.000000	0.142622	0.146762	15.159731
4330.000000	0.078748	0.084540	12.061862
4332.000000	0.109816	0.106067	5.344149
4334.000000	0.107847	0.112963	7.154448
4336.000000	0.101043	0.098801	11.162895
4338.000000	0.100445	0.102756	22.762363
4340.000000	0.067351	0.067495	3.034647
4342.000000	0.080578	0.073766	1.244874
4344.000000	0.087902	0.093920	6.908381
4346.000000	0.085640	0.080506	3.216045
4348.000000	0.091763	0.121816	4.364409
4350.000000	0.087896	0.083509	3.186002
4352.000000	0.122295	0.139171	4.636077
4354.000000	0.087489	0.082917	2.773662
4356.000000	0.087023	0.095877	7.124150
4358.000000	0.078121	0.069502	15.427897
4360.000000	0.074555	0.079369	16.894705
4362.000000	0.078864	0.079819	8.290291
4364.000000	0.100806	0.104488	11.673800
4366.000000	0.095501	0.089700	45.829693
4368.000000	0.106831	0.098323	23.114552
4370.000000	0.101488	0.103281	19.308454
4372.000000	0.095501	0.085437	21.534188
4374.000000	0.089000	0.097249	30.423724
4376.000000	0.085758	0.079472	9.442534
4378.000000	0.079351	0.073257	28.969427
4380.000000	0.077381	0.075776	34.952789
4382.000000	0.083009	0.086062	36.250458
4384.000000	0.091948	0.082130	9.632794
4386.000000	0.128854	0.131815	11.469520
4388.000000	0.145121	0.148125	7.892967
4390.000000	0.164412	0.165870	4.121857
4392.000000	0.118283	0.113484	2.318925
4394.000000	0.157422	0.136927	6.887781
4396.000000	0.156738	0.161656	4.596878
4398.000000	0.171623	0.159854	1.586961
4400.000000	0.192556	0.187482	21.371925
4402.000000	0.120604	0.112346	23.998920
4404.000000	0.166044	0.161843	24.729064
4406.000000	0.170878	0.166904	10.141500
4408.000000	0.156750	0.174505	9.981994
4410.000000	0.209376	0.216471	23.309430
4412.000000	0.246814	0.258289	7.404528
4414.000000	0.192672	0.178623	5.742293
4416.000000	0.176829	0.154648	5.054029
4418.000000	0.279266	0.248771	6.102231
4420.000000	0.370393	0.342702	14.559677
4422.000000	0.403391	0.399225	2.229063
4424.000000	0.345372	0.328048	5.871056
4426.000000	0.269445	0.269158	1.585212
4428.000000	0.549775	0.507720	3.435259
4430.000000	0.315277	0.312937	3.720389
4432.000000	0.562322	0.551050	16.413574
4434.000000	0.313815	0.338444	4.446175
4436.000000	0.387851	0.384385	10.550920
4438.000000	1.054142	1.054985	10.717604
4440.000000	0.964340	0.974423	10.246292
4442.000000	1.025016	0.970703	18.443491
4444.000000	1.220384	1.190655	62.596554
4446.000000	1.258094	1.195496	45.443097
4448.000000	1.288886	1.164833	24.953252
4450.000000	1.451831	1.339870	28.375473
4452.000000	1.514153	1.378847	17.776163
4454.000000	1.514705	1.395761	8.812771
4456.000000	0.973290	0.996604	3.856262
4458.000000	1.438092	1.455815	7.795080
4460.000000	1.602903	1.482099	7.049908
4462.000000	1.491099	1.516439	8.171095
4464.000000	1.566452	1.596910	14.209101
4466.000000	1.758299	1.656216	14.415472
4468.000000	1.750527	1.818568	6.413306
4470.000000	1.499414	1.439425	11.591817
4472.000000	1.810007	1.868020	10.635421
4474.000000	1.237475	1.123398	7.863408
4476.000000	1.302063	1.448529	6.798809
4478.000000	1.254060	1.104284	7.755475
4480.000000	1.397905	1.398995	9.332008
4482.000000	1.039203	1.056136	5.744391
4484.000000	1.383789	1.248305	7.195933
4486.000000	1.164310	1.185907	5.977944
4488.000000	1.205978	1.105031	3.700538
4490.000000	1.164336	1.100017	5.042384
4492.000000	0.899432	0.889027	5.118560
4494.000000	0.803042	0.739342	11.696459
4496.000000	0.692210	0.634736	4.097243
4498.000000	0.783080	0.733198	3.033087
4500.000000	0.638015	0.639662	2.916392
4502.000000	0.654262	0.628799	4.260637
4504.000000	0.635609	0.700648	5.988606
4506.000000	0.560287	0.554237	2.358770
4508.000000	0.467692	0.437312	2.888720
4510.000000	0.450382	0.433678	3.044698
4512.000000	0.473852	0.438631	1.302014
4514.000000	0.397789	0.378339	5.106607
4516.000000	0.317613	0.335879	1.303110
4518.000000	0.288482	0.249398	2.089568
4520.000000	0.284847	0.270514	4.164867
4522.000000	0.261736	0.279696	5.971041
4524.000000	0.231384	0.241570	3.082907
4526.000000	0.196215	0.191334	3.570049
4528.000000	0.238941	0.233833	4.477153
4530.000000	0.234714	0.236886	5.019590
4532.000000	0.199520	0.222972	9.964405
4534.000000	0.235463	0.207681	6.836107
4536.000000	0.190367	0.186259	6.900204
4538.000000	0.223618	0.246475	7.645875
4540.000000	0.209955	0.211242	3.174373
4542.000000	0.214323	0.222555	4.850437
4544.000000	0.223031	0.221987	18.089801
4546.000000	0.195405	0.188968	4.552670
4548.000000	0.181235	0.170380	4.451287
4550.000000	0.191637	0.207717	10.290232
4552.000000	0.205191	0.194768	7.003031
4554.000000	0.173945	0.194600	1.258185
4556.000000	0.172826	0.174948	3.734315
4558.000000	0.171366	0.159831	9.565634
4560.000000	0.176819	0.161725	3.096989
4562.000000	0.190870	0.179646	3.841607
4564.000000	0.167508	0.145824	6.161446
4566.000000	0.157108	0.154351	11.585372
4568.000000	0.159810	0.155174	3.252052
4570.000000	0.179226	0.178385	3.680845
4572.000000	0.192501	0.196652	4.210765
4574.000000	0.170205	0.168558	3.148694
4576.000000	0.165564	0.162093	2.394572
4578.000000	0.183710	0.166682	2.257702
4580.000000	0.176008	0.176931	3.152823
4582.000000	0.186936	0.183579	0.690633
4584.000000	0.184576	0.177762	3.752524
4586.000000	0.202173	0.195055	3.728841
4588.000000	0.174973	0.195129	3.305511
4590.000000	0.187270	0.177730	3.570251
4592.000000	0.187734	0.183635	4.054062
4594.000000	0.226969	0.216196	5.879709
4596.000000	0.228386	0.223367	2.264192
4598.000000	0.243752	0.232959	13.097942
4600.000000	0.238079	0.238495	1.712223
4602.000000	0.239662	0.244062	3.985788
4604.000000	0.212606	0.198017	17.097094
4606.000000	0.246008	0.336503	21.622976
4608.000000	0.266080	0.292937	31.197814
4610.000000	0.267537	0.267317	31.625307
4612.000000	0.247003	0.251602	10.609311
4614.000000	0.274327	0.266461	20.224143
4616.000000	0.270590	0.256512	22.705682
4618.000000	0.276874	0.260350	8.950281
4620.000000	0.252399	0.253264	7.733286
4622.000000	0.281573	0.299179	4.010143
4624.000000	0.314269	0.323061	10.913037
4626.000000	0.295709	0.271199	5.468487
4628.000000	0.358849	0.363801	15.003425
4630.000000	0.303256	0.280510	37.331871
4632.000000	0.349787	0.337260	9.494944
4634.000000	0.352285	0.345645	12.764424
4636.000000	0.401316	0.367024	13.779368
4638.000000	0.350521	0.373908	29.069357
4640.000000	0.417266	0.411868	2.348111
4642.000000	0.370392	0.364690	7.711179
4644.000000	0.355804	0.325820	3.159451
4646.000000	0.348950	0.323489	8.700975
4648.000000	0.462232	0.414274	8.098096
4650.000000	0.412198	0.370147	11.537081
4652.000000	0.436709	0.459336	14.215204
4654.000000	0.409081	0.360752	23.050456
4656.000000	0.416263	0.370474	10.355568
4658.000000	0.501694	0.506308	21.950982
4660.000000	0.438988	0.514910	20.808662
4662.000000	0.400834	0.431207	9.251812
4664.000000	0.422841	0.415642	12.586056
4666.000000	0.389301	0.418121	1.700908
4668.000000	0.382514	0.346943	5.294674
4670.000000	0.400081	0.380569	2.515292
4672.000000	0.407633	0.424449	2.649886
4674.000000	0.395716	0.415200	3.446595
4676.000000	0.368127	0.334069	20.444945
4678.000000	0.356098	0.341714	11.925796
4680.000000	0.360937	0.337543	22.247457
4682.000000	0.402139	0.381894	14.318454
4684.000000	0.405837	0.388603	9.597298
4686.000000	0.408904	0.407618	11.709656
4688.000000	0.406501	0.413958	22.111022
4690.000000	0.410402	0.365766	4.385498
4692.000000	0.343125	0.345589	2.016398
4694.000000	0.359987	0.379027	5.062575
4696.000000	0.346020	0.349828	5.128209
4698.000000	0.311763	0.351363	2.060934
4700.000000	0.336413	0.319737	4.119165
4702.000000	0.365056	0.350661	15.578702
4704.000000	0.323802	0.349912	9.637913
4706.000000	0.351826	0.353297	7.431775
4708.000000	0.301724	0.302411	13.887112
4710.000000	0.289256	0.309836	12.226488
4712.000000	0.306526	0.336646	5.643823
4714.000000	0.302960	0.317671	9.649238
4716.000000	0.245388	0.245678	27.228905
4718.000000	0.228760	0.239376	14.576866
4720.000000	0.228095	0.231335	17.422709
4722.000000	0.227990	0.193233	23.509363
4724.000000	0.220083	0.215067	20.454476
4726.000000	0.216179	0.232517	1.666360
4728.000000	0.256264	0.242969	6.163048
4730.000000	0.260755	0.259475	9.627818
4732.000000	0.182090	0.161988	2.244380
4734.000000	0.245698	0.258621	7.554311
4736.000000	0.236547	0.227203	15.376599
4738.000000	0.218946	0.221388	6.519813
4740.000000	0.234480	0.244445	7.758213
4742.000000	0.233636	0.275244	10.555621
4744.000000	0.222403	0.208638	26.148461
4746.000000	0.265493	0.281775	19.387997
4748.000000	0.240656	0.253889	31.282647
4750.000000	0.269671	0.286379	17.864160
4752.000000	0.241592	0.249626	27.906565
4754.000000	0.248711	0.262520	37.437823
4756.000000	0.263748	0.295941	13.737362
4758.000000	0.271643	0.252025	20.056186
4760.000000	0.282846	0.304213	10.182002
4762.000000	0.283598	0.293828	9.203807
4764.000000	0.284430	0.245289	28.526226
4766.000000	0.318181	0.312613	9.094656
4768.000000	0.288635	0.299950	17.195103
4770.000000	0.343797	0.330431	15.074796
4772.000000	0.363289	0.358445	18.730257
4774.000000	0.335310	0.308792	32.085959
4776.000000	0.364059	0.318100	31.061912
4778.000000	0.456395	0.415841	11.963872
4780.000000	0.398096	0.367650	19.679331
4782.000000	0.396073	0.401529	13.609863
4784.000000	0.427167	0.435212	14.925605
4786.000000	0.563434	0.541783	19.005571
4788.000000	0.547562	0.565973	44.708725
4790.000000	0.593887	0.590729	18.157342
4792.000000	0.592689	0.575986	8.901027
4794.000000	0.680028	0.767207	9.113964
4796.000000	0.799322	0.902068	23.257203
4798.000000	0.842261	0.836875	13.886831
4800.000000	0.847644	0.798199	17.820983
4802.000000	1.036561	1.034488	15.207324
4804.000000	1.137299	1.171722	29.303487
4806.000000	1.119014	1.071029	13.169010
4808.000000	1.004324	0.931080	32.488810
4810.000000	1.074763	1.136403	34.377544
4812.000000	0.981821	1.063518	10.421880
4814.000000	1.025159	1.094611	16.644138
4816.000000	0.897392	0.869043	35.945268
4818.000000	0.741520	0.792714	22.510372
4820.000000	0.832787	0.779409	11.614002
4822.000000	0.722421	0.643585	20.921437
4824.000000	0.716465	0.769093	36.438226
4826.000000	0.778104	0.665390	15.315251
4828.000000	0.678300	0.698046	28.916924
4830.000000	0.619164	0.646799	31.005683
4832.000000	0.617062	0.639420	18.841409
4834.000000	0.658832	0.583976	15.574191
4836.000000	0.591542	0.543373	34.265428
4838.000000	0.637136	0.651842	65.814617
4840.000000	0.556182	0.555584	23.956133
4842.000000	0.511904	0.558145	23.877030
4844.000000	0.474300	0.453172	53.153389
4846.000000	0.405698	0.382316	30.202119
4848.000000	0.474218	0.438139	14.261827
4850.000000	0.446709	0.432499	28.663940
4852.000000	0.453699	0.430060	15.877571
4854.000000	0.450829	0.424356	15.858337
4856.000000	0.487468	0.532328	4.349773
4858.000000	0.436211	0.424096	10.936309
4860.000000	0.452999	0.505739	20.799099
4862.000000	0.387216	0.403824	7.914593
4864.000000	0.397135	0.392148	10.179189
4866.000000	0.403563	0.407601	27.728910
4868.000000	0.365083	0.361142	12.816597
4870.000000	0.374589	0.351498	11.000781
4872.000000	0.325464	0.362609	11.909604
4874.000000	0.349179	0.349067	8.759511
4876.000000	0.351962	0.346048	20.113477
4878.000000	0.280788	0.273872	14.863352
4880.000000	0.295453	0.272383	11.815102
4882.000000	0.279147	0.269969	8.376048
4884.000000	0.212445	0.213720	7.413496
4886.000000	0.218197	0.209035	13.563289
4888.000000	0.197154	0.181562	5.378928
4890.000000	0.162667	0.174323	8.425752
4892.000000	0.180758	0.181198	8.297966
4894.000000	0.146309	0.150290	21.829837
4896.000000	0.156637	0.160761	12.831942
4898.000000	0.151723	0.163822	22.893754
4900.000000	0.161151	0.141861	19.867758
4902.000000	0.151705	0.158577	20.104500
4904.000000	0.124946	0.120784	11.929138
4906.000000	0.120999	0.121093	8.987818
4908.000000	0.109607	0.110611	13.542884
4910.000000	0.131282	0.152368	18.482996
4912.000000	0.134621	0.124411	5.741702
4914.000000	0.130290	0.155478	10.672032
4916.000000	0.120248	0.142425	6.905203
4918.000000	0.099007	0.099881	9.363686
4920.000000	0.091712	0.089343	6.574436
4922.000000	0.094161	0.091516	28.569344
4924.000000	0.097342	0.098419	21.312203
4926.000000	0.095206	0.096486	31.453703
4928.000000	0.102003	0.093611	16.010774
4930.000000	0.090567	0.084934	10.110446
4932.000000	0.086674	0.081225	11.905436
4934.000000	0.104783	0.108959	5.004000
4936.000000	0.090993	0.073648	5.172029
4938.000000	0.073196	0.074981	6.592526
4940.000000	0.083231	0.075872	3.601819
4942.000000	0.097237	0.087736	9.425538
4944.000000	0.075573	0.072618	6.306426
4946.000000	0.084358	0.078844	4.357907
4948.000000	0.078723	0.082636	6.991556
4950.000000	0.087297	0.089673	3.971978
4952.000000	0.090153	0.088516	3.360100
4954.000000	0.090626	0.089700	1.444804
4956.000000	0.096134	0.088110	3.779340
4958.000000	0.113356	0.112749	5.127134
4960.000000	0.121508	0.113612	8.908707
4962.000000	0.136186	0.146213	3.163247
4964.000000	0.138049	0.149344	2.184555
4966.000000	0.154801	0.154289	1.318001
4968.000000	0.138242	0.134723	2.626541
4970.000000	0.130831	0.122206	2.872093
4972.000000	0.116159	0.113576	0.398052
4974.000000	0.104517	0.096190	4.492823
4976.000000	0.116532	0.111465	13.096341
4978.000000	0.121094	0.142274	3.751100
4980.000000	0.111022	0.099014	4.482384
4982.000000	0.101478	0.097806	5.383358
4984.000000	0.112155	0.112970	5.794360
4986.000000	0.095045	0.085324	2.656063
4988.000000	0.098996	0.104390	6.058470
4990.000000	0.102616	0.118445	3.388793
4992.000000	0.103952	0.103791	3.157927
4994.000000	0.088351	0.082695	10.340650
4996.000000	0.084949	0.090561	3.878984
4998.000000	0.092354	0.093014	3.283081
5000.000000	0.092108	0.088485	19.288857
5002.000000	0.080273	0.079123	7.858138
5004.000000	0.087736	0.093365	2.951484
5006.000000	0.098855	0.100128	2.998244
5008.000000	0.110351	0.113291	4.901456
5010.000000	0.094345	0.091852	4.526677
5012.000000	0.096145	0.101507	2.735542
5014.000000	0.096949	0.088409	2.560856
5016.000000	0.092650	0.091321	4.242794
5018.000000	0.097470	0.097638	2.728804
5020.000000	0.119318	0.119061	7.678347
5022.000000	0.135453	0.147073	3.353081
5024.000000	0.132242	0.133242	5.999635
5026.000000	0.121667	0.112560	2.077287
5028.000000	0.126977	0.110289	2.530280
5030.000000	0.122065	0.118458	2.775555
5032.000000	0.125687	0.129742	4.185043
5034.000000	0.136089	0.147822	6.362651
5036.000000	0.135289	0.138232	4.976654
5038.000000	0.141463	0.138924	5.956016
5040.000000	0.124538	0.109880	3.347970
5042.000000	0.145599	0.157412	4.002691
5044.000000	0.141417	0.140605	2.428662
5046.000000	0.118018	0.110430	3.299678
5048.000000	0.124170	0.126454	4.377795
5050.000000	0.120065	0.113792	5.055918
5052.000000	0.112654	0.114975	4.121550
5054.000000	0.112132	0.115329	2.781417
5056.000000	0.124046	0.117591	4.642439
5058.000000	0.109204	0.107137	3.623367
5060.000000	0.090130	0.091703	4.747343
5062.000000	0.120921	0.115770	3.186851
5064.000000	0.100125	0.096989	7.662737
5066.000000	0.105087	0.096407	3.614254
5068.000000	0.103606	0.101169	4.218116
5070.000000	0.089160	0.082088	2.165194
5072.000000	0.084968	0.081069	4.166787
5074.000000	0.093201	0.088285	3.911652
5076.000000	0.111527	0.123771	4.468616
5078.000000	0.100490	0.097677	5.883974
5080.000000	0.102548	0.113011	5.402998
5082.000000	0.096314	0.093084	11.421770
5084.000000	0.097092	0.104756	5.331277
5086.000000	0.087230	0.084040	9.908324
5088.000000	0.090869	0.090648	20.971304
5090.000000	0.102982	0.104212	4.980207
5092.000000	0.083811	0.082122	5.759053
5094.000000	0.100522	0.097530	26.322054
5096.000000	0.105524	0.098496	9.049696
5098.000000	0.098078	0.092246	3.028706
5100.000000	0.101432	0.109673	4.415951
5102.000000	0.124945	0.111633	6.992970
5104.000000	0.119867	0.106292	6.494644
5106.000000	0.113041	0.115295	4.438891
5108.000000	0.114979	0.124540	3.602665
5110.000000	0.123520	0.114696	3.208767
5112.000000	0.095750	0.106716	3.000448
5114.000000	0.082927	0.078300	4.999760
5116.000000	0.086891	0.086103	5.604077
5118.000000	0.089319	0.105214	4.151733
5120.000000	0.079914	0.075862	2.522510
5122.000000	0.067879	0.061907	2.869798
5124.000000	0.085754	0.079909	3.463849
5126.000000	0.107262	0.107744	2.150810
5128.000000	0.091658	0.094554	4.664220
5130.000000	0.111083	0.123266	4.772574
5132.000000	0.119208	0.126179	3.639292
5134.000000	0.118641	0.131701	2.768552
5136.000000	0.131446	0.122088	5.086582
5138.000000	0.109984	0.112773	1.215201
5140.000000	0.166646	0.166250	5.407609
5142.000000	0.142189	0.147434	5.947638
5144.000000	0.171487	0.176454	20.133098
5146.000000	0.165018	0.174924	9.595525
5148.000000	0.181548	0.168743	7.636360
5150.000000	0.148946	0.150460	12.676349
5152.000000	0.176130	0.183759	5.679183
5154.000000	0.189504	0.181128	4.901359
5156.000000	0.195775	0.200325	5.529528
5158.000000	0.264814	0.249559	11.699075
5160.000000	0.277728	0.271504	11.361159
5162.000000	0.296141	0.285520	9.132054
5164.000000	0.292709	0.299124	8.255557
5166.000000	0.274038	0.241395	6.274160
5168.000000	0.285191	0.283223	2.534641
5170.000000	0.257715	0.248162	3.197335
5172.000000	0.271481	0.283362	3.487462
5174.000000	0.314009	0.331400	3.703235
5176.000000	0.224945	0.239150	6.376022
5178.000000	0.283697	0.298466	5.240220
5180.000000	0.259596	0.245454	7.886842
5182.000000	0.312394	0.316544	7.250930
5184.000000	0.351390	0.326951	2.853946
5186.000000	0.350744	0.369888	4.252976
5188.000000	0.299859	0.291145	1.263820
5190.000000	0.363758	0.367228	3.102487
5192.000000	0.381105	0.335096	3.489134
5194.000000	0.371453	0.408551	2.327035
5196.000000	0.438153	0.373071	4.555674
5198.000000	0.388814	0.332857	4.987355
5200.000000	0.483489	0.522657	8.827991
5202.000000	0.389484	0.411210	5.446432
5204.000000	0.411732	0.357570	3.517655
5206.000000	0.382368	0.414672	5.360718
5208.000000	0.371529	0.385805	5.614952
5210.000000	0.457424	0.455363	9.845610
5212.000000	0.366976	0.411663	4.378312
5214.000000	0.351812	0.371936	2.059975
5216.000000	0.439688	0.443290	3.699964
5218.000000	0.361453	0.353316	2.600428
5220.000000	0.369514	0.382192	9.855364
5222.000000	0.246202	0.223555	3.022171
5224.000000	0.308790	0.346918	5.433651
5226.000000	0.273117	0.293685	2.681739
5228.000000	0.256722	0.241147	2.763605
5230.000000	0.229346	0.230224	3.571447
5232.000000	0.198630	0.209908	5.138614
5234.000000	0.176508	0.163572	2.444850
5236.000000	0.140294	0.147152	3.483737
5238.000000	0.140529	0.143633	4.825409
5240.000000	0.146515	0.162308	4.695691
5242.000000	0.141961	0.158148	2.813235
5244.000000	0.150013	0.148756	4.578178
5246.000000	0.131453	0.130938	4.124555
5248.000000	0.124310	0.118079	4.103064
5250.000000	0.118769	0.118617	5.383276
5252.000000	0.103019	0.094719	4.456274
5254.000000	0.161783	0.157331	2.930384
5256.000000	0.126799	0.124922	4.689809
5258.000000	0.109164	0.095492	4.619669
5260.000000	0.110481	0.111092	3.407795
5262.000000	0.114977	0.108603	3.448126
5264.000000	0.094664	0.085096	3.018872
5266.000000	0.078035	0.083697	3.329070
5268.000000	0.086612	0.094906	3.628249
5270.000000	0.077740	0.076485	2.527342
5272.000000	0.065388	0.060139	3.584309
5274.000000	0.062841	0.066958	3.056101
5276.000000	0.067435	0.064352	1.245086
5278.000000	0.050285	0.051732	2.650659
5280.000000	0.061694	0.059032	2.983649
5282.000000	0.055595	0.059042	2.454679
5284.000000	0.058032	0.053355	3.209436
5286.000000	0.054106	0.052596	3.911897
5288.000000	0.062080	0.057555	1.473677
5290.000000	0.060035	0.059605	3.749744
5292.000000	0.054134	0.049428	4.688644
5294.000000	0.054438	0.054289	7.279982
5296.000000	0.057338	0.057812	2.771687
5298.000000	0.055498	0.052758	2.662919
5300.000000	0.058589	0.054237	0.440431
5302.000000	0.055127	0.051933	4.951019
5304.000000	0.050728	0.046122	3.414168
5306.000000	0.059384	0.057183	4.842737
5308.000000	0.056633	0.054283	3.639565
5310.000000	0.052088	0.060123	3.210223
5312.000000	0.049996	0.048509	3.817848
5314.000000	0.052659	0.047828	4.436511
5316.000000	0.054457	0.049766	3.884335
5318.000000	0.052522	0.060519	2.415905
5320.000000	0.051787	0.048820	2.350684
5322.000000	0.046279	0.041404	6.765314
5324.000000	0.045397	0.045378	5.924904
5326.000000	0.046251	0.044334	12.395146
5328.000000	0.054174	0.054055	3.878599
5330.000000	0.054530	0.055520	6.455947
5332.000000	0.049096	0.042842	0.903363
5334.000000	0.053860	0.053179	2.144250
5336.000000	0.051877	0.054045	4.282808
5338.000000	0.049110	0.048723	6.512319
5340.000000	0.045821	0.048266	3.479142
5342.000000	0.044112	0.045255	3.529363
5344.000000	0.053471	0.056179	7.473252
5346.000000	0.054397	0.053064	4.161334
5348.000000	0.051890	0.052587	3.871738
5350.000000	0.055360	0.053220	0.184784
5352.000000	0.055623	0.053229	4.468294
5354.000000	0.049046	0.047665	3.440401
5356.000000	0.058011	0.056047	4.829258
5358.000000	0.050495	0.050798	3.451313
5360.000000	0.064290	0.061255	3.474193
5362.000000	0.063624	0.064310	3.550567
5364.000000	0.056770	0.048874	3.630255
5366.000000	0.055332	0.051266	3.492742
5368.000000	0.059270	0.050463	4.675458
5370.000000	0.063791	0.064790	2.442377
5372.000000	0.054317	0.057591	2.991297
5374.000000	0.062935	0.064323	4.057041
5376.000000	0.068644	0.069973	1.528028
5378.000000	0.065231	0.063073	3.603300
5380.000000	0.059058	0.055153	2.611451
5382.000000	0.055855	0.062455	7.518097
5384.000000	0.063115	0.060410	5.198004
5386.000000	0.061808	0.059068	5.876270
5388.000000	0.064497	0.058653	13.030144
5390.000000	0.073935	0.075723	3.247977
5392.000000	0.065782	0.073253	2.605128
5394.000000	0.070196	0.064431	1.612164
5396.000000	0.065792	0.063449	5.084655
5398.000000	0.069411	0.069834	5.065647
5400.000000	0.064093	0.068257	0.740024
5402.000000	0.053755	0.062364	5.498073
5404.000000	0.064854	0.061778	4.658233
5406.000000	0.069534	0.077027	4.064719
5408.000000	0.069632	0.074242	6.172105
5410.000000	0.058073	0.052804	4.550145
5412.000000	0.058999	0.057817	3.911172
5414.000000	0.052412	0.053981	2.085846
5416.000000	0.054516	0.054190	2.708449
5418.000000	0.055842	0.058008	3.818926
5420.000000	0.052476	0.053797	8.972757
5422.000000	0.058826	0.057551	7.024332
5424.000000	0.049473	0.044591	7.069754
5426.000000	0.054992	0.048551	15.047473
5428.000000	0.049252	0.048770	4.601330
5430.000000	0.054318	0.059049	9.588859
5432.000000	0.044860	0.042681	1.312911
5434.000000	0.043524	0.039029	5.549542
5436.000000	0.048785	0.044623	4.646576
5438.000000	0.037505	0.036189	0.352848
5440.000000	0.046543	0.049259	4.327607
5442.000000	0.049203	0.047884	5.292768
5444.000000	0.045200	0.045433	12.211350
5446.000000	0.040241	0.048263	6.846845
5448.000000	0.035883	0.035511	3.712200
5450.000000	0.041732	0.044837	6.158677
5452.000000	0.041706	0.041569	3.754150
5454.000000	0.035405	0.033701	2.999586
5456.000000	0.044592	0.040467	4.549750
5458.000000	0.036895	0.035435	4.011619
5460.000000	0.043599	0.046041	6.568602
5462.000000	0.045700	0.040682	4.986854
5464.000000	0.038545	0.037052	7.701981
5466.000000	0.037165	0.034221	3.642526
5468.000000	0.038486	0.038482	2.663561
5470.000000	0.040679	0.040266	5.457150
5472.000000	0.039150	0.035400	5.192182
5474.000000	0.045149	0.046840	3.360478
5476.000000	0.044232	0.042715	11.073880
5478.000000	0.041482	0.041850	3.958352
5480.000000	0.041943	0.038706	4.290788
5482.000000	0.041705	0.039491	1.023040
5484.000000	0.042595	0.043595	4.273713
5486.000000	0.042028	0.041645	3.400035
5488.000000	0.047266	0.052294	1.737584
5490.000000	0.034523	0.031576	2.781542
5492.000000	0.041207	0.041035	4.414663
5494.000000	0.037898	0.036562	1.611610
5496.000000	0.039288	0.039605	2.637984
5498.000000	0.039641	0.040242	3.746056
5500.000000	0.040690	0.042079	7.222925
5502.000000	0.048119	0.049579	4.798591
5504.000000	0.047156	0.041878	2.577831
5506.000000	0.046113	0.046437	3.856292
5508.000000	0.051699	0.045882	3.588974
5510.000000	0.046890	0.041236	3.677456
5512.000000	0.049833	0.048084	4.619114
5514.000000	0.059277	0.065739	2.045842
5516.000000	0.067957	0.063724	3.640888
5518.000000	0.053742	0.048362	3.843034
5520.000000	0.067849	0.075245	5.217495
5522.000000	0.053893	0.055424	4.211138
5524.000000	0.065310	0.063253	3.763170
5526.000000	0.090324	0.081694	4.282074
5528.000000	0.070249	0.070929	4.572022
5530.000000	0.099165	0.102149	4.802017
5532.000000	0.099147	0.102032	0.462587
5534.000000	0.113491	0.113252	4.330983
5536.000000	0.101263	0.115451	5.122634
5538.000000	0.103789	0.089895	9.857712
5540.000000	0.115073	0.113052	4.192636
5542.000000	0.095110	0.102487	4.540746
5544.000000	0.083524	0.084982	4.584565
5546.000000	0.098741	0.098059	5.572199
5548.000000	0.074593	0.071152	4.703529
5550.000000	0.083348	0.083856	5.916695
5552.000000	0.071952	0.079308	2.185775
5554.000000	0.077305	0.071183	3.060709
5556.000000	0.080780	0.079646	3.033341
5558.000000	0.079424	0.082390	3.379996
5560.000000	0.095962	0.092433	3.776431
5562.000000	0.073205	0.075815	3.154592
5564.000000	0.080162	0.084482	5.448597
5566.000000	0.081154	0.086198	5.667387
5568.000000	0.081322	0.084989	5.533429
5570.000000	0.078944	0.092386	5.891053
5572.000000	0.071658	0.072501	6.004966
5574.000000	0.082137	0.087086	3.039917
5576.000000	0.065352	0.070103	11.935518
5578.000000	0.077799	0.076423	4.595478
5580.000000	0.067255	0.071574	7.425607
5582.000000	0.063354	0.059260	1.935173
5584.000000	0.061395	0.059296	4.857199
5586.000000	0.052029	0.051917	2.517581
5588.000000	0.057011	0.061800	10.963997
5590.000000	0.056605	0.059784	4.998663
5592.000000	0.048786	0.046229	4.867319
5594.000000	0.041515	0.038739	5.286332
5596.000000	0.054106	0.049985	6.217372
5598.000000	0.056716	0.052549	3.926203
5600.000000	0.050299	0.052587	0.711421
5602.000000	0.044304	0.040595	4.381265
5604.000000	0.056602	0.056957	2.811537
5606.000000	0.053200	0.052001	2.966971
5608.000000	0.063686	0.066877	7.088258
5610.000000	0.056211	0.058158	3.209355
5612.000000	0.053137	0.050198	4.581031
5614.000000	0.046126	0.055861	3.618400
5616.000000	0.048672	0.048378	3.664253
5618.000000	0.040447	0.043288	3.567772
5620.000000	0.045808	0.051681	2.586971
5622.000000	0.047163	0.046070	5.369656
5624.000000	0.047658	0.054181	4.459817
5626.000000	0.039826	0.039518	3.062768
5628.000000	0.041528	0.035929	4.385333
5630.000000	0.041125	0.046408	4.119837
5632.000000	0.046859	0.046341	6.015402
5634.000000	0.042423	0.036422	5.512799
5636.000000	0.036181	0.034828	4.984195
5638.000000	0.036476	0.032007	0.881191
5640.000000	0.033487	0.032316	5.321909
5642.000000	0.031436	0.031630	3.870777
5644.000000	0.029471	0.028721	4.292670
5646.000000	0.032166	0.035451	4.077270
5648.000000	0.031059	0.029166	3.931577
5650.000000	0.032026	0.032510	4.463133
5652.000000	0.033722	0.035878	3.711173
5654.000000	0.033187	0.031924	4.539786
5656.000000	0.031715	0.033638	4.537334
5658.000000	0.034352	0.036297	5.743078
5660.000000	0.030083	0.030878	6.116352
5662.000000	0.031480	0.034047	4.060228
5664.000000	0.029684	0.028303	4.130275
5666.000000	0.035412	0.033220	4.036705
5668.000000	0.031132	0.036405	4.587657
5670.000000	0.032090	0.029852	7.456964
5672.000000	0.035783	0.033610	3.954545
5674.000000	0.034758	0.036013	4.276228
5676.000000	0.032622	0.036061	4.524147
5678.000000	0.030635	0.027506	4.266536
5680.000000	0.033760	0.034341	5.298273
5682.000000	0.031973	0.031711	16.378770
5684.000000	0.037183	0.035917	4.180193
5686.000000	0.035555	0.035022	5.180805
5688.000000	0.031246	0.031647	19.956398
5690.000000	0.030423	0.027558	3.732959
5692.000000	0.028918	0.031312	5.006229
5694.000000	0.030986	0.031155	21.392940
5696.000000	0.031128	0.035917	6.986068
5698.000000	0.031896	0.029520	3.426040
5700.000000	0.035273	0.033623	8.934979
5702.000000	0.032593	0.029387	7.360271
5704.000000	0.031698	0.034789	5.614508
5706.000000	0.034372	0.030982	5.116682
5708.000000	0.034582	0.032752	4.843540
5710.000000	0.030762	0.029252	3.177732
5712.000000	0.033063	0.029237	3.386176
5714.000000	0.031332	0.034973	5.669212
5716.000000	0.030805	0.032812	4.724498
5718.000000	0.033254	0.031583	3.478079
5720.000000	0.033171	0.032841	7.881855
5722.000000	0.034154	0.036643	3.421393
5724.000000	0.034912	0.032473	4.552056
5726.000000	0.031179	0.027991	12.397445
5728.000000	0.033692	0.032777	5.550244
5730.000000	0.034830	0.034553	4.599143
5732.000000	0.033518	0.028495	2.258226
5734.000000	0.032190	0.035965	3.484100
5736.000000	0.030399	0.032477	3.278800
5738.000000	0.031586	0.027703	12.848529
5740.000000	0.031791	0.030458	3.020272
5742.000000	0.031943	0.032224	4.493819
5744.000000	0.032864	0.032819	7.207294
5746.000000	0.033726	0.033909	5.890630
5748.000000	0.041163	0.040809	3.520727
5750.000000	0.034622	0.032544	7.065485
5752.000000	0.033771	0.033088	4.399856
5754.000000	0.036151	0.037349	4.391366
5756.000000	0.037386	0.041061	4.359952
5758.000000	0.039910	0.042561	6.845337
5760.000000	0.036185	0.036699	5.424970
5762.000000	0.038968	0.039585	3.931170
5764.000000	0.038308	0.039844	5.908201
5766.000000	0.041468	0.037322	3.786441
5768.000000	0.032904	0.033486	3.916766
5770.000000	0.039669	0.038232	3.101301
5772.000000	0.038085	0.037988	3.874106
5774.000000	0.043966	0.040105	5.425707
5776.000000	0.038158	0.042468	2.717700
5778.000000	0.042698	0.041557	3.564327
5780.000000	0.037869	0.031700	4.836772
5782.000000	0.042002	0.043940	3.177128
5784.000000	0.042118	0.040081	4.554260
5786.000000	0.041841	0.043423	4.384088
5788.000000	0.037897	0.039450	2.874456
5790.000000	0.040150	0.041460	3.400061
5792.000000	0.039186	0.036878	2.792847
5794.000000	0.037550	0.037484	2.709872
5796.000000	0.036228	0.037597	2.904387
5798.000000	0.041053	0.040400	3.594276
5800.000000	0.037377	0.035316	3.208243
5802.000000	0.037182	0.039960	3.635318
5804.000000	0.040594	0.039343	3.817367
5806.000000	0.043183	0.042906	3.654301
5808.000000	0.033984	0.034619	3.617085
5810.000000	0.037294	0.038943	4.120096
5812.000000	0.039658	0.039368	4.848988
5814.000000	0.043040	0.045238	6.381388
5816.000000	0.039293	0.034860	5.541928
5818.000000	0.044231	0.047439	3.917650
5820.000000	0.044997	0.043574	10.149437
5822.000000	0.042850	0.044195	3.440351
5824.000000	0.046096	0.042913	3.362370
5826.000000	0.046652	0.042439	1.289892
5828.000000	0.039130	0.045389	2.873851
5830.000000	0.050343	0.054864	4.082526
5832.000000	0.048221	0.054034	7.543674
5834.000000	0.056068	0.053922	5.238007
5836.000000	0.062352	0.063406	4.129534
5838.000000	0.062445	0.062999	9.097468
5840.000000	0.063501	0.059653	2.830381
5842.000000	0.052420	0.047884	4.344886
5844.000000	0.047179	0.045076	1.555287
5846.000000	0.048018	0.046776	3.088575
5848.000000	0.054698	0.059409	4.081863
5850.000000	0.051225	0.050650	0.529380
5852.000000	0.055895	0.048610	5.298748
5854.000000	0.047250	0.051218	4.038379
5856.000000	0.049236	0.055814	3.929817
5858.000000	0.051911	0.047220	4.772025
5860.000000	0.043352	0.039832	3.325221
5862.000000	0.046305	0.044593	4.180127
5864.000000	0.054726	0.052722	5.130571
5866.000000	0.048103	0.044855	7.679273
5868.000000	0.049741	0.051657	8.463440
5870.000000	0.049974	0.047416	11.973377
5872.000000	0.055596	0.052698	18.761729
5874.000000	0.051698	0.051407	16.250032
5876.000000	0.061814	0.060264	25.954717
5878.000000	0.049089	0.048453	14.039146
5880.000000	0.053626	0.050342	22.338451
5882.000000	0.047760	0.047640	27.251146
5884.000000	0.055274	0.058198	13.662258
5886.000000	0.051657	0.050507	28.364384
5888.000000	0.057648	0.053967	19.395566
5890.000000	0.056420	0.050727	25.036819
5892.000000	0.063583	0.062173	37.590472
5894.000000	0.059409	0.054353	67.953487
5896.000000	0.056425	0.054732	22.676514
5898.000000	0.069335	0.069761	8.746164
5900.000000	0.052045	0.056462	8.792601
5902.000000	0.057127	0.051949	59.345626
5904.000000	0.053586	0.058015	54.827874
5906.000000	0.060375	0.065830	51.490155
5908.000000	0.064181	0.069558	66.168322
5910.000000	0.066266	0.069963	66.490549
5912.000000	0.062377	0.057882	34.147537
5914.000000	0.061807	0.061974	48.681457
5916.000000	0.071748	0.069808	64.802707
5918.000000	0.066965	0.076030	53.585762
5920.000000	0.070520	0.070670	39.117523
5922.000000	0.085743	0.086643	47.534652
5924.000000	0.081535	0.074639	24.237601
5926.000000	0.086055	0.079636	29.978699
5928.000000	0.098316	0.101229	15.785787
5930.000000	0.107058	0.113176	13.767838
5932.000000	0.138157	0.132872	17.250012
5934.000000	0.118340	0.116039	6.504583
5936.000000	0.110936	0.116587	14.332875
5938.000000	0.134193	0.128396	6.402281
5940.000000	0.148409	0.165100	16.049229
5942.000000	0.110682	0.117776	22.692254
5944.000000	0.107560	0.107877	26.058079
5946.000000	0.109594	0.106533	30.328951
5948.000000	0.118819	0.106197	20.093380
5950.000000	0.098682	0.093879	59.643862
5952.000000	0.118452	0.112021	42.930641
5954.000000	0.129723	0.114107	22.648414
5956.000000	0.133700	0.132173	19.169564
5958.000000	0.132862	0.127410	30.555790
5960.000000	0.129487	0.123695	26.696997
5962.000000	0.086216	0.084677	7.427766
5964.000000	0.087769	0.083752	11.114990
5966.000000	0.091355	0.088440	25.199544
5968.000000	0.078605	0.082372	20.060426
5970.000000	0.102623	0.095051	21.002071
5972.000000	0.098788	0.097036	10.633206
5974.000000	0.078288	0.073139	9.198182
5976.000000	0.078448	0.078330	3.082271
5978.000000	0.081791	0.083756	9.508710
5980.000000	0.083556	0.083422	15.192396
5982.000000	0.072073	0.072086	7.966268
5984.000000	0.071235	0.072081	14.857260
5986.000000	0.077600	0.073035	21.859595
5988.000000	0.077069	0.073687	31.553828
5990.000000	0.075643	0.075130	9.664282
5992.000000	0.086042	0.083717	7.904571
5994.000000	0.071956	0.070932	25.783430
5996.000000	0.078706	0.076673	8.194943
5998.000000	0.066860	0.070058	4.498315
6000.000000	0.070340	0.070557	16.578114
6002.000000	0.071646	0.074377	6.642367
6004.000000	0.065047	0.062691	3.533614
6006.000000	0.063772	0.064476	4.432001
6008.000000	0.071718	0.087305	5.908127
6010.000000	0.060730	0.054081	8.316540
6012.000000	0.069832	0.063043	5.136580
6014.000000	0.054826	0.055738	8.108265
6016.000000	0.070677	0.069471	7.584465
6018.000000	0.075788	0.074622	6.160226
6020.000000	0.068929	0.062270	12.622141
6022.000000	0.062654	0.059160	7.206231
6024.000000	0.070206	0.080995	6.495807
6026.000000	0.067946	0.070897	11.332847
6028.000000	0.069129	0.063984	4.284416
6030.000000	0.069172	0.066365	3.069578
6032.000000	0.066021	0.064299	1.937028
6034.000000	0.063971	0.056743	2.961726
6036.000000	0.063553	0.059554	3.399224
6038.000000	0.064509	0.060478	5.604976
6040.000000	0.071446	0.063896	5.107068
6042.000000	0.077645	0.074806	7.636414
6044.000000	0.081483	0.090151	21.104790
6046.000000	0.076610	0.075190	11.088492
6048.000000	0.076054	0.071806	7.460298
6050.000000	0.071322	0.069732	4.421559
6052.000000	0.063096	0.053698	12.198844
6054.000000	0.065980	0.063086	10.580305
6056.000000	0.077003	0.074958	8.441969
6058.000000	0.072283	0.068701	5.530091
6060.000000	0.073713	0.077756	4.390615
6062.000000	0.085525	0.073118	4.212295
6064.000000	0.078655	0.088168	7.579627
6066.000000	0.078525	0.071785	11.892445
6068.000000	0.074317	0.080958	8.963472
6070.000000	0.075963	0.067059	16.548909
6072.000000	0.086681	0.086704	17.203600
6074.000000	0.072642	0.074370	8.087190
6076.000000	0.084977	0.084672	11.553460
6078.000000	0.082395	0.086133	6.075868
6080.000000	0.071934	0.071791	6.819389
6082.000000	0.082288	0.105311	10.077333
6084.000000	0.082860	0.079004	4.193096
6086.000000	0.079521	0.075219	6.114165
6088.000000	0.085306	0.082868	9.771462
6090.000000	0.073043	0.067747	3.701466
6092.000000	0.064631	0.056104	2.823805
6094.000000	0.083961	0.081403	15.876917
6096.000000	0.084267	0.077595	14.751223
6098.000000	0.070703	0.076257	8.546402
6100.000000	0.083037	0.092352	11.565696
6102.000000	0.073050	0.086212	7.149204
6104.000000	0.083010	0.082506	6.901392
6106.000000	0.082975	0.078708	8.680763
6108.000000	0.075940	0.072432	18.852044
6110.000000	0.075073	0.083244	31.177646
6112.000000	0.094797	0.090907	13.057822
6114.000000	0.080077	0.080396	19.430953
6116.000000	0.066441	0.067767	47.271159
6118.000000	0.088811	0.085060	19.158700
6120.000000	0.089338	0.090521	3.839118
6122.000000	0.076819	0.074121	2.438014
6124.000000	0.078235	0.078192	6.916007
6126.000000	0.081898	0.084753	20.599381
6128.000000	0.082643	0.081103	19.482985
6130.000000	0.090570	0.084177	37.890685
6132.000000	0.077889	0.077478	46.662022
6134.000000	0.074729	0.075826	7.162155
6136.000000	0.070954	0.079140	4.510525
6138.000000	0.081805	0.084428	2.870656
6140.000000	0.078260	0.067412	3.358006
6142.000000	0.085065	0.095919	6.015828
6144.000000	0.079107	0.093592	6.516853
6146.000000	0.076159	0.074955	5.930364
6148.000000	0.082247	0.098133	2.445414
6150.000000	0.085514	0.088027	18.716383
6152.000000	0.069433	0.071875	14.416930
6154.000000	0.086203	0.091171	2.540016
6156.000000	0.084463	0.081153	1.846373
6158.000000	0.074538	0.070815	4.022421
6160.000000	0.079658	0.080422	2.591825
6162.000000	0.072105	0.066869	2.671956
6164.000000	0.085530	0.079528	6.009589
6166.000000	0.074285	0.072059	7.184174
6168.000000	0.074688	0.085053	5.255211
6170.000000	0.075882	0.071982	6.692910
6172.000000	0.078138	0.078424	5.214053
6174.000000	0.071634	0.065235	5.675227
6176.000000	0.080026	0.090376	4.714830
6178.000000	0.087983	0.087893	2.941131
6180.000000	0.079608	0.081235	3.576271
6182.000000	0.079365	0.071747	1.722770
6184.000000	0.081768	0.079958	5.667118
6186.000000	0.072154	0.072091	3.222426
6188.000000	0.067581	0.070179	9.661072
6190.000000	0.079531	0.074294	4.346859
6192.000000	0.082061	0.089069	3.889078
6194.000000	0.075938	0.064117	13.330869
6196.000000	0.077773	0.075867	2.905364
6198.000000	0.074161	0.079370	3.743482
6200.000000	0.072794	0.068268	3.590001
6202.000000	0.077261	0.074690	3.078954
6204.000000	0.078077	0.074958	6.109644
6206.000000	0.077325	0.081931	4.288548
6208.000000	0.082281	0.076711	3.281253
6210.000000	0.072592	0.070077	2.870067
6212.000000	0.068929	0.065219	4.060998
6214.000000	0.065714	0.064663	4.476911
6216.000000	0.073810	0.074022	7.701864
6218.000000	0.070065	0.072028	8.788015
6220.000000	0.069538	0.069443	15.083883
6222.000000	0.065963	0.064978	22.977473
6224.000000	0.064781	0.067490	18.944960
6226.000000	0.065402	0.073865	12.279796
6228.000000	0.066925	0.071658	9.527805
6230.000000	0.056724	0.060282	13.822914
6232.000000	0.064066	0.065054	7.870510
6234.000000	0.062031	0.059118	5.608983
6236.000000	0.060231	0.059741	3.978770
6238.000000	0.064357	0.065567	8.364850
6240.000000	0.061737	0.061094	3.112204
6242.000000	0.065420	0.066881	2.625891
6244.000000	0.056871	0.058039	0.548457
6246.000000	0.064082	0.060602	3.389408
6248.000000	0.057294	0.055076	2.584828
6250.000000	0.057851	0.053309	0.566210
6252.000000	0.057311	0.061871	2.957504
6254.000000	0.053524	0.061428	3.721686
6256.000000	0.052609	0.054072	3.883128
6258.000000	0.055230	0.053792	3.134413
6260.000000	0.058756	0.056739	3.350064
6262.000000	0.056637	0.064167	2.998634
6264.000000	0.059604	0.061058	3.590328
6266.000000	0.051244	0.047759	3.158804
6268.000000	0.058605	0.061910	4.322649
6270.000000	0.061328	0.062501	3.828667
6272.000000	0.064360	0.075022	3.217714
6274.000000	0.055361	0.062254	3.797464
6276.000000	0.057891	0.056925	3.244891
6278.000000	0.055877	0.057556	4.720888
6280.000000	0.054508	0.049938	3.668323
6282.000000	0.052321	0.056700	11.345376
6284.000000	0.057076	0.052952	4.961389
6286.000000	0.052324	0.048676	18.484627
6288.000000	0.056471	0.056159	24.604535
6290.000000	0.056912	0.054057	21.905716
6292.000000	0.055978	0.050549	32.920285
6294.000000	0.053172	0.061052	62.441153
6296.000000	0.049174	0.046373	28.425900
6298.000000	0.058408	0.054177	14.615874
6300.000000	0.051043	0.050743	17.802845
6302.000000	0.044911	0.042561	16.829404
6304.000000	0.047468	0.044238	8.675540
6306.000000	0.060687	0.059490	4.376485
6308.000000	0.053307	0.043389	5.400013
6310.000000	0.059352	0.056003	2.931207
6312.000000	0.051797	0.048461	3.907525
6314.000000	0.046162	0.048094	8.281394
6316.000000	0.053273	0.053159	11.719396
6318.000000	0.040974	0.040538	16.721178
6320.000000	0.046138	0.042594	17.480944
6322.000000	0.045503	0.046179	25.375394
6324.000000	0.043755	0.051944	11.243800
6326.000000	0.048498	0.046897	9.675657
6328.000000	0.040626	0.042132	8.112871
6330.000000	0.041605	0.043736	10.956524
6332.000000	0.035798	0.035457	7.105844
6334.000000	0.039136	0.043938	2.435854
6336.000000	0.036639	0.035303	10.542568
6338.000000	0.036904	0.040172	54.869515
6340.000000	0.037441	0.036531	34.873745
6342.000000	0.039248	0.038358	42.496929
6344.000000	0.037252	0.041674	104.417386
6346.000000	0.042880	0.043329	53.879777
6348.000000	0.040193	0.035654	21.351874
6350.000000	0.037730	0.039801	28.178024
6352.000000	0.037526	0.038506	21.423177
6354.000000	0.033047	0.032499	5.042359
6356.000000	0.031338	0.030575	11.142417
6358.000000	0.034806	0.036428	14.248091
6360.000000	0.029162	0.030778	8.937177
6362.000000	0.037313	0.036752	4.637851
6364.000000	0.032415	0.033513	10.087960
6366.000000	0.031586	0.033916	39.865564
6368.000000	0.032967	0.032357	42.377740
6370.000000	0.036678	0.038986	22.810932
6372.000000	0.031151	0.028447	51.344042
6374.000000	0.031724	0.031040	59.353229
6376.000000	0.036903	0.038784	15.834842
6378.000000	0.032726	0.035589	12.281081
6380.000000	0.032913	0.032432	14.078553
6382.000000	0.033466	0.031767	1.309423
6384.000000	0.031178	0.027748	4.876413
6386.000000	0.039905	0.041184	3.371053
6388.000000	0.038883	0.038222	5.418469
6390.000000	0.034816	0.039534	5.266479
6392.000000	0.043367	0.045470	12.763536
6394.000000	0.041835	0.041105	12.846727
6396.000000	0.046869	0.048926	9.714206
6398.000000	0.030579	0.032878	6.947674
6400.000000	0.026576	0.027778	0.999498
6402.000000	0.031826	0.031196	5.583896
6404.000000	0.032598	0.035046	3.479497
6406.000000	0.027683	0.026485	4.250694
6408.000000	0.029355	0.030010	9.371990
6410.000000	0.028132	0.028420	9.078130
6412.000000	0.032480	0.030690	6.845836
6414.000000	0.032141	0.026458	9.863992
6416.000000	0.030880	0.026788	12.716465
6418.000000	0.030192	0.029279	10.491678
6420.000000	0.032521	0.031508	10.130692
6422.000000	0.030722	0.029369	8.391462
6424.000000	0.029036	0.029257	7.591817
6426.000000	0.029394	0.029074	1.871961
6428.000000	0.026891	0.027446	3.550203
6430.000000	0.030582	0.028184	2.966978
6432.000000	0.027743	0.028663	0.964195
6434.000000	0.029175	0.030021	4.164114
6436.000000	0.029648	0.032363	4.582869
6438.000000	0.026122	0.026421	16.962610
6440.000000	0.027225	0.027986	4.041445
6442.000000	0.031409	0.031577	3.318271
6444.000000	0.026558	0.023789	7.726634
6446.000000	0.029729	0.027191	3.736387
6448.000000	0.031292	0.033969	3.808367
6450.000000	0.025018	0.026930	2.071236
6452.000000	0.028977	0.027794	8.722037
6454.000000	0.022711	0.023880	9.249979
6456.000000	0.024121	0.025737	9.652720
6458.000000	0.026977	0.028457	10.768441
6460.000000	0.027233	0.027116	8.876169
6462.000000	0.029123	0.031975	4.148391
6464.000000	0.025943	0.027641	4.185211
6466.000000	0.024692	0.023731	4.428249
6468.000000	0.025851	0.024625	4.563205
6470.000000	0.025505	0.022821	2.325288
6472.000000	0.025807	0.022801	2.958844
6474.000000	0.028584	0.028439	3.985255
6476.000000	0.026282	0.028126	4.278787
6478.000000	0.026021	0.024262	4.306055
6480.000000	0.028047	0.027071	4.305871
6482.000000	0.027218	0.028328	5.100469
6484.000000	0.028157	0.027563	3.375560
6486.000000	0.024473	0.024620	3.421547
6488.000000	0.028401	0.031204	5.169000
6490.000000	0.023843	0.022408	4.104599
6492.000000	0.028278	0.025580	3.708377
6494.000000	0.025080	0.024977	3.764375
6496.000000	0.027169	0.023992	3.138251
6498.000000	0.026529	0.025799	3.285536
6500.000000	0.028034	0.025960	0.860410
6502.000000	0.025514	0.028510	4.213002
6504.000000	0.024743	0.026181	6.014485
6506.000000	0.029354	0.030013	3.569955
6508.000000	0.024618	0.023396	4.330432
6510.000000	0.027592	0.026664	3.321068
6512.000000	0.025971	0.026745	3.508649
6514.000000	0.026804	0.027432	5.217068
6516.000000	0.026589	0.025568	3.646589
6518.000000	0.025429	0.025142	4.376307
6520.000000	0.025526	0.025441	2.432920
6522.000000	0.026675	0.026931	4.275142
6524.000000	0.026538	0.024822	4.383304
6526.000000	0.028240	0.029304	2.905701
6528.000000	0.024572	0.030003	3.874662
6530.000000	0.028627	0.027674	3.470607
6532.000000	0.027965	0.027438	3.788427
6534.000000	0.024206	0.025317	4.833479
6536.000000	0.026636	0.025798	3.850081
6538.000000	0.028395	0.028226	1.355731
6540.000000	0.025896	0.024418	5.061229
6542.000000	0.025234	0.026707	3.417408
