

# Analyzer rotated over 45deg
# Scan parameters: power 16.000000 dBm, bandwidth 1.500000 Hz
# Frequency [MHz]	avg noise	std noise	peak value
3400.000000	12.078975	11.696319	3680.756095
3402.000000	11.581903	11.148754	3670.527450
3404.000000	11.628666	11.067526	1939.833541
3406.000000	12.018616	11.278916	2266.644468
3408.000000	12.145768	11.556417	5036.273680
3410.000000	11.931614	14.000591	7088.495480
3412.000000	11.527367	11.798094	3295.980528
3414.000000	11.601437	11.653213	4430.641468
3416.000000	10.807856	11.122656	6577.737855
3418.000000	11.618974	11.652786	5283.515469
3420.000000	12.390172	12.074685	3292.631827
3422.000000	11.956315	12.829070	2711.599164
3424.000000	12.647835	11.036336	4103.406133
3426.000000	12.310182	12.802486	601.731435
3428.000000	15.112430	15.543185	1108.020233
3430.000000	13.716418	16.440097	3296.814331
3432.000000	12.719557	12.663191	2709.365324
3434.000000	14.158841	14.936686	10761.013457
3436.000000	16.831371	15.423290	15000.235296
3438.000000	13.529670	13.454674	13560.556172
3440.000000	12.726015	14.187889	27283.662595
3442.000000	12.923513	16.292700	40997.734375
3444.000000	15.260315	15.152404	34244.196193
3446.000000	19.914523	21.401563	19271.412468
3448.000000	12.994002	13.694623	11410.283195
3450.000000	12.910005	11.628221	21062.510598
3452.000000	25.722443	27.793297	9562.698197
3454.000000	18.263025	17.265760	7280.531899
3456.000000	42.225227	40.194742	4333.450216
3458.000000	115.950201	129.890912	14660.047474
3460.000000	28.053147	24.697179	22527.885598
3462.000000	19.596915	19.264676	22081.885618
3464.000000	15.364449	14.703260	58931.612364
3466.000000	13.769259	14.836113	105304.282236
3468.000000	13.413623	12.354141	114927.677874
3470.000000	14.655012	13.803890	91265.737311
3472.000000	16.111046	15.866849	189387.442540
3474.000000	14.024513	14.053779	167271.960289
3476.000000	14.296331	15.208540	65648.776596
3478.000000	22.277645	21.931736	65127.065071
3480.000000	15.623423	17.835865	53245.838326
3482.000000	20.068584	20.343026	37901.039804
3484.000000	15.932206	16.340746	16075.028027
3486.000000	14.203452	13.930623	28197.900017
3488.000000	15.596915	19.308679	28150.639592
3490.000000	14.204358	14.724562	16751.554985
3492.000000	14.675605	14.670616	12228.719766
3494.000000	16.165669	15.309777	13185.988326
3496.000000	16.010690	15.397826	4839.171892
3498.000000	14.608369	13.176243	3466.796176
3500.000000	13.849357	13.718549	2656.140638
3502.000000	12.453995	12.230680	909.541132
3504.000000	13.888520	13.097848	182.559337
3506.000000	39.853348	37.317474	1096.984064
3508.000000	12.433793	13.543450	3790.921756
3510.000000	71.659119	63.555768	4647.998994
3512.000000	12.246251	13.592246	4448.779835
3514.000000	13.879540	14.821922	8325.583475
3516.000000	14.992101	15.983251	7483.515761
3518.000000	14.756834	15.679329	8414.439572
3520.000000	14.025179	15.950623	5167.437706
3522.000000	15.225942	16.014079	6663.781927
3524.000000	26.964018	26.999274	11022.170008
3526.000000	30.286760	27.205525	5745.552119
3528.000000	12.872853	13.598278	12177.043242
3530.000000	13.850404	12.555938	23158.127877
3532.000000	14.678003	16.049399	18690.189510
3534.000000	14.661061	14.945262	12159.754776
3536.000000	11.642394	11.885735	22289.704952
3538.000000	11.967985	11.960777	22900.824572
3540.000000	15.454259	16.810636	17254.724221
3542.000000	15.387500	14.525919	16538.360415
3544.000000	16.162142	16.163988	21643.232907
3546.000000	11.966149	12.169449	19877.807453
3548.000000	16.488205	18.034369	7223.023193
3550.000000	19.301355	18.040389	19281.630139
3552.000000	20.948150	19.029819	24066.036458
3554.000000	16.967799	17.600730	14949.551097
3556.000000	89.628167	98.441868	23593.227872
3558.000000	449.238587	445.434229	34940.357905
3560.000000	15.013932	14.121600	21545.083066
3562.000000	33.836101	29.491234	12964.916033
3564.000000	33.625757	34.634554	20057.554467
3566.000000	46.550087	49.209557	30264.941864
3568.000000	24.555733	23.642993	21614.307858
3570.000000	23.733870	24.557734	15338.904195
3572.000000	23.721023	22.376163	23268.477006
3574.000000	19.035096	17.219376	30175.519088
3576.000000	25.750006	26.813525	14257.174857
3578.000000	25.312463	23.294225	30335.078444
3580.000000	21.402949	23.425069	43794.133619
3582.000000	21.216382	20.222969	31153.828411
3584.000000	17.897938	17.863677	17090.674029
3586.000000	21.017446	20.914250	29883.215376
3588.000000	16.130598	15.845209	35369.164143
3590.000000	22.469777	24.403418	15271.593589
3592.000000	17.004762	14.582920	11516.110529
3594.000000	17.844346	19.823767	10650.130954
3596.000000	16.361238	18.370688	6790.153045
3598.000000	18.447316	17.989342	4484.148289
3600.000000	17.776049	18.416667	3316.126556
3602.000000	22.592970	25.147459	2180.165563
3604.000000	21.787735	23.713716	739.738176
3606.000000	32.952614	31.250286	1994.797825
3608.000000	20.987168	20.407686	3510.116833
3610.000000	35.177343	32.471281	1523.364200
3612.000000	26.618070	29.870519	2747.529810
3614.000000	22.149205	20.462155	6277.762429
3616.000000	15.911991	16.648610	13247.205480
3618.000000	18.016911	18.478586	8045.102381
3620.000000	16.544831	15.833528	6665.580397
3622.000000	19.668438	18.163978	16869.186951
3624.000000	18.278815	16.667441	12338.435883
3626.000000	17.319374	16.341407	11570.495193
3628.000000	18.804493	20.028546	11788.363045
3630.000000	20.988431	19.770915	20240.590730
3632.000000	21.300334	20.680604	22031.796947
3634.000000	19.592918	19.516377	9586.423007
3636.000000	21.450986	20.774765	10862.532403
3638.000000	22.872892	21.107265	8731.514693
3640.000000	56.570932	53.728688	5355.218102
3642.000000	79.470180	79.941056	17889.482587
3644.000000	94.414622	86.492113	55772.913195
3646.000000	49.662709	60.168843	78472.222842
3648.000000	162.817049	150.694830	61120.852640
3650.000000	368.150733	350.281086	113321.180533
3652.000000	308.776931	311.577015	116875.380454
3654.000000	381.451283	353.859767	32054.526639
3656.000000	761.492601	699.267098	15007.182265
3658.000000	655.761749	695.479820	18938.583776
3660.000000	528.607341	533.329297	20407.013831
3662.000000	901.618958	952.129546	19673.199005
3664.000000	675.614512	636.207632	59972.441991
3666.000000	231.044993	235.706051	140328.170482
3668.000000	47.415224	56.518104	202264.113933
3670.000000	55.304426	55.026027	180727.005826
3672.000000	53.061803	51.094989	385928.605666
3674.000000	53.300567	49.785446	331905.211465
3676.000000	59.066399	63.603096	167920.193065
3678.000000	62.743467	57.617898	204289.219974
3680.000000	118.331452	106.723665	283866.560334
3682.000000	156.227175	143.573751	197490.030486
3684.000000	780.082490	720.832657	85666.831381
3686.000000	2035.651601	2190.780214	121170.363163
3688.000000	1565.142966	1548.481710	327880.360000
3690.000000	869.236038	808.579142	262009.884973
3692.000000	578.843029	598.388507	461844.088023
3694.000000	277.738523	260.285162	720290.800607
3696.000000	343.782650	364.514297	545307.835841
3698.000000	452.874744	434.666606	271802.385021
3700.000000	392.817604	388.817514	636611.224721
3702.000000	338.213530	357.783231	1062945.013875
3704.000000	407.013996	396.726603	792713.835443
3706.000000	253.762371	273.793821	800690.877531
3708.000000	413.333559	431.070190	1446783.721835
3710.000000	289.043161	275.095247	1652346.168427
3712.000000	238.395527	244.245178	985216.054698
3714.000000	169.817630	182.400970	1862474.021677
3716.000000	101.964149	112.891936	2620920.627468
3718.000000	100.202910	100.120895	2127290.488495
3720.000000	141.126948	131.623246	1438310.942492
3722.000000	179.264085	175.148638	2546135.101753
3724.000000	102.979580	97.457034	2572713.037342
3726.000000	122.211836	127.810375	1614769.512429
3728.000000	105.886841	109.443934	1789940.317375
3730.000000	77.942634	76.427322	2029425.096314
3732.000000	84.783134	79.949215	1346480.629698
3734.000000	67.040013	69.104519	499051.845602
3736.000000	116.285393	127.709282	653985.964772
3738.000000	84.261773	81.972224	567658.486703
3740.000000	78.379862	80.789095	283994.876702
3742.000000	152.438866	152.142797	275156.970461
3744.000000	292.939790	321.558879	443626.014646
3746.000000	370.680484	342.393346	514199.062685
3748.000000	327.067632	348.784051	295088.054878
3750.000000	649.404849	615.721657	500768.035280
3752.000000	161.328765	169.284155	575232.899814
3754.000000	874.993748	907.189213	217577.695583
3756.000000	1035.202392	984.938767	161322.107478
3758.000000	746.251025	686.239154	306809.751190
3760.000000	860.839616	837.188256	377065.741331
3762.000000	404.893186	415.960192	311812.153554
3764.000000	338.897681	303.856766	488638.425588
3766.000000	470.417052	478.441033	677536.250639
3768.000000	706.554494	746.248982	560384.358054
3770.000000	186.077019	188.693091	473719.267469
3772.000000	190.339323	212.085991	869838.297504
3774.000000	267.728759	272.027190	823872.709244
3776.000000	155.993018	159.745857	471352.106912
3778.000000	276.890293	264.647745	537118.848762
3780.000000	176.987511	178.094487	616893.843095
3782.000000	143.154207	148.192548	352168.921512
3784.000000	617.828080	727.812011	82232.451347
3786.000000	877.282708	817.018656	144618.494739
3788.000000	695.125479	671.430776	236888.347502
3790.000000	172.114544	185.548304	139806.450817
3792.000000	840.343409	844.645065	169694.932452
3794.000000	235.586396	223.653924	192310.789446
3796.000000	216.811842	198.695311	147420.142079
3798.000000	649.902852	674.598628	38720.815050
3800.000000	772.902863	716.430129	31160.560366
3802.000000	963.951749	826.826344	21896.447916
3804.000000	471.522646	468.850811	5697.883657
3806.000000	354.311394	343.254684	8928.045768
3808.000000	578.074107	520.538142	36897.781643
3810.000000	372.647332	338.841368	54400.764289
3812.000000	571.916865	602.288709	76558.157738
3814.000000	459.500796	476.809135	222304.353580
3816.000000	398.026062	400.599640	325199.853624
3818.000000	399.147949	405.985105	263627.275908
3820.000000	663.729000	666.382193	140837.190539
3822.000000	412.680608	392.219313	105848.949231
3824.000000	390.576189	381.105674	84150.810168
3826.000000	618.807109	605.162615	18436.910096
3828.000000	466.365095	448.764239	20077.283627
3830.000000	628.325262	696.292642	12243.206698
3832.000000	347.871854	338.228781	21865.068281
3834.000000	423.881417	448.299762	7956.263379
3836.000000	421.560134	404.857465	11825.282716
3838.000000	393.286781	389.656639	4538.061068
3840.000000	344.303831	338.604245	10084.682652
3842.000000	445.209574	441.432077	11555.756273
3844.000000	391.110102	401.902325	45471.441124
3846.000000	427.075308	449.569542	14405.779201
3848.000000	448.925948	438.126298	22519.658745
3850.000000	473.752612	531.004310	41905.905066
3852.000000	435.698444	412.293024	154269.376920
3854.000000	490.609636	418.632954	152258.425778
3856.000000	437.252208	432.859157	136835.453458
3858.000000	488.782460	437.543481	227572.108275
3860.000000	579.166018	568.669363	83998.121446
3862.000000	552.274214	550.068328	32851.758587
3864.000000	592.069282	661.994617	15320.161581
3866.000000	446.303199	449.628225	14046.111526
3868.000000	473.008546	444.680130	46020.815929
3870.000000	499.966468	541.849526	53704.016073
3872.000000	644.329143	632.834071	293111.468951
3874.000000	750.791840	754.281106	413769.110396
3876.000000	836.309238	836.936335	700586.433955
3878.000000	883.496022	807.000776	1060338.258016
3880.000000	874.536602	918.466233	1889952.019050
3882.000000	1648.852787	1622.575089	1856259.628713
3884.000000	1047.415076	1210.269611	1018608.903224
3886.000000	1001.909496	963.630070	1691984.553725
3888.000000	1037.928090	1091.273606	1313165.924074
3890.000000	1042.159944	1006.693526	1169376.886298
3892.000000	747.494210	728.827616	1601832.456491
3894.000000	532.499048	574.796852	3330126.258703
3896.000000	425.657005	445.511559	2901759.947901
3898.000000	465.802271	414.497545	1943126.562971
3900.000000	427.252642	418.482826	3377096.138320
3902.000000	498.818913	466.419398	3339682.697410
3904.000000	533.267232	526.411421	2102663.526788
3906.000000	536.189037	554.174764	1898663.748648
3908.000000	599.195780	580.194356	2853535.760365
3910.000000	465.197286	435.696873	2411931.080393
3912.000000	482.320497	435.644046	1043571.583354
3914.000000	499.029408	500.001545	1440871.390408
3916.000000	510.118538	504.868367	1645437.535501
3918.000000	429.436024	428.638354	1473754.707220
3920.000000	646.093649	640.032351	1042233.774188
3922.000000	553.324951	523.341107	1694024.730857
3924.000000	578.674477	654.450223	1919596.254430
3926.000000	535.991251	536.245967	1313094.737260
3928.000000	456.878712	471.127629	2426271.749498
3930.000000	494.150382	470.306846	3726703.468297
3932.000000	537.230438	470.794454	3761528.609133
3934.000000	543.082896	463.585688	2270525.955312
3936.000000	514.720500	458.968192	4767143.670770
3938.000000	541.468413	498.066154	5223014.453019
3940.000000	445.890690	468.764497	3132500.133128
3942.000000	508.713351	532.719543	2380840.286702
3944.000000	504.849624	485.862398	2549386.323140
3946.000000	571.284720	517.323426	2310512.957957
3948.000000	494.593344	531.724181	1089530.368606
3950.000000	503.515765	561.314168	2616476.502482
3952.000000	441.252971	444.199889	2842438.483766
3954.000000	576.928003	519.582814	1787469.813089
3956.000000	498.676362	483.599682	1824054.488952
3958.000000	562.009126	546.611573	3805596.249977
3960.000000	499.055442	527.588515	4302081.057662
3962.000000	612.936671	655.526009	2751324.500711
3964.000000	605.783757	646.900653	5131289.468826
3966.000000	599.729598	558.237867	5901731.810321
3968.000000	698.032602	750.640179	3166431.401692
3970.000000	558.035186	597.204869	1539991.972261
3972.000000	967.025074	1053.999157	2566549.112774
3974.000000	975.539065	929.137554	4253074.636164
3976.000000	1017.500541	948.104698	3574766.092325
3978.000000	763.854617	749.591123	4899059.447180
3980.000000	866.744382	851.787161	8456494.153556
3982.000000	809.503202	758.013814	6975929.640382
3984.000000	842.807638	871.904195	4427096.404660
3986.000000	799.274997	726.417421	8763759.601675
3988.000000	716.108435	707.646980	10171163.332276
3990.000000	810.745803	761.772381	5547014.067104
3992.000000	672.623785	693.440985	4537312.198288
3994.000000	742.949017	811.993768	6091111.098335
3996.000000	688.818908	705.073691	3429530.012564
3998.000000	869.367969	779.471629	1368736.557061
4000.000000	997.425098	1083.945090	2392668.806711
4002.000000	920.682970	978.969386	3006722.604486
4004.000000	849.391247	798.989528	2246584.766951
4006.000000	739.435533	737.987391	1775371.796262
4008.000000	622.463203	597.764058	2260242.335818
4010.000000	794.945181	859.076717	2522205.606759
4012.000000	774.000586	846.822030	1193712.857489
4014.000000	998.190405	914.629379	1628812.229524
4016.000000	613.809292	625.278379	1321266.259095
4018.000000	623.712304	658.036607	752655.941862
4020.000000	648.645756	647.575305	508446.492969
4022.000000	807.518863	785.948689	896393.394456
4024.000000	630.186925	557.353601	1202230.026828
4026.000000	692.836429	682.218749	666245.965319
4028.000000	670.410511	620.355044	725855.970155
4030.000000	784.612769	842.658095	824158.398234
4032.000000	771.646431	743.709777	835230.954038
4034.000000	753.223375	763.982674	305619.527564
4036.000000	634.149150	562.191875	451910.550896
4038.000000	719.611357	780.485881	224474.725252
4040.000000	694.052258	700.782240	63620.048012
4042.000000	743.842446	761.740256	180470.251398
4044.000000	589.044506	548.049596	279087.942285
4046.000000	649.070707	700.721465	497930.076501
4048.000000	598.560427	532.995764	428564.491097
4050.000000	675.790803	658.960693	950340.477644
4052.000000	611.671272	611.648051	1351548.497411
4054.000000	690.392702	641.651340	1234094.606626
4056.000000	634.488705	685.770828	947745.719443
4058.000000	672.101659	636.491947	1652687.666312
4060.000000	708.026488	773.457616	1473467.059542
4062.000000	700.335658	659.404362	856883.195236
4064.000000	722.197896	753.911251	1471616.322107
4066.000000	770.675530	738.115557	1918191.497507
4068.000000	698.933527	774.102127	1518705.572969
4070.000000	621.042736	565.605477	972511.726256
4072.000000	833.206472	751.748178	1145132.597391
4074.000000	772.789171	815.992537	1231285.176248
4076.000000	787.247123	853.827579	552205.827461
4078.000000	846.430373	859.164130	570142.121712
4080.000000	995.172266	925.352330	781875.318898
4082.000000	1089.758107	1172.426579	804641.178822
4084.000000	948.800192	862.374006	284232.696195
4086.000000	953.289317	855.458679	309568.957099
4088.000000	1400.650469	1502.640951	530866.452612
4090.000000	1467.167314	1696.904676	176507.094801
4092.000000	1537.891267	1549.441777	187572.818275
4094.000000	1059.554909	1036.859474	366717.872945
4096.000000	889.458487	821.600206	205619.891063
4098.000000	929.031828	889.677204	228428.389945
4100.000000	1052.825243	951.836246	388748.658849
4102.000000	1100.284150	1027.931029	363125.615482
4104.000000	1557.389146	1623.162335	93081.116545
4106.000000	1236.706380	1235.440900	210384.399764
4108.000000	875.683663	795.954612	464083.037813
4110.000000	1803.582320	1834.007178	785992.367153
4112.000000	1229.686811	1195.602673	255820.078442
4114.000000	986.175502	916.244122	218536.845106
4116.000000	1167.694199	1136.003492	534757.671371
4118.000000	1108.332003	1183.775278	480085.113430
4120.000000	1135.908288	1097.239998	311778.930132
4122.000000	1197.957882	1211.136958	643090.806139
4124.000000	1039.985315	994.053353	239037.564160
4126.000000	1024.357239	1080.181470	22581.846884
4128.000000	909.560141	935.542957	35671.919232
4130.000000	947.915276	999.727691	113668.020683
4132.000000	1268.941778	1340.586915	51416.902437
4134.000000	1531.924974	1409.076281	19094.151530
4136.000000	1377.366428	1231.942797	15604.331967
4138.000000	1359.894527	1373.169058	116941.953428
4140.000000	1528.222245	1774.681921	321777.688923
4142.000000	2198.785409	2056.446693	758191.622149
4144.000000	3195.332135	2918.050600	945217.702477
4146.000000	5510.432200	5978.683914	850156.384719
4148.000000	5244.866894	5234.890022	838872.346250
4150.000000	4828.009088	5527.608294	1187657.464732
4152.000000	8320.847184	9555.227474	2169640.629558
4154.000000	13411.108021	13681.419290	2105142.325526
4156.000000	4052.928599	4042.614463	3307270.255074
4158.000000	7012.546047	6920.875720	4790593.394934
4160.000000	7000.915498	7047.874619	4953331.047517
4162.000000	6476.879293	7170.594841	4154374.589621
4164.000000	5381.833957	5085.184015	6831099.259650
4166.000000	6009.241985	5874.553373	8852921.774825
4168.000000	7261.038982	8020.000050	5771298.578180
4170.000000	5655.959516	5544.727356	4279377.238063
4172.000000	5506.584962	5965.368444	5549260.040890
4174.000000	6541.856892	6286.080454	3966698.844257
4176.000000	4325.999850	3997.482255	2594563.778029
4178.000000	3465.737912	3485.460090	3212648.487814
4180.000000	2912.564762	2559.022404	5474986.417919
4182.000000	2507.893058	2540.248013	5102808.248623
4184.000000	1503.653805	1494.641657	1888994.675811
4186.000000	1873.477912	1950.720369	2249312.569012
4188.000000	1472.545651	1426.552707	2952315.246476
4190.000000	1439.031163	1571.160503	3619881.400306
4192.000000	2231.115433	2053.064921	4810310.611933
4194.000000	2132.950354	2293.118345	8433902.941461
4196.000000	1644.902121	1632.462849	8333470.167325
4198.000000	1464.672685	1430.045592	3963631.869298
4200.000000	1751.871801	1620.362451	6667732.626053
4202.000000	1451.440370	1533.924812	6283823.299469
4204.000000	1299.061217	1293.452087	3316082.421655
4206.000000	973.628094	883.649232	1306403.338945
4208.000000	1241.165191	1306.195331	1654990.334778
4210.000000	1098.631494	1085.399021	2344438.511273
4212.000000	1217.085620	1348.124452	1556408.524010
4214.000000	1116.499415	1073.630471	2725011.343008
4216.000000	1186.104877	1244.833584	4171706.937681
4218.000000	1151.823023	1153.993436	3969456.076380
4220.000000	1315.139635	1215.516318	3295700.067658
4222.000000	1227.495339	1248.335042	6320768.013444
4224.000000	1132.838201	1061.721102	7217730.456100
4226.000000	1183.398226	1001.516399	4446084.936026
4228.000000	1135.209758	1050.990501	3470802.583046
4230.000000	988.590406	941.294170	3115168.849713
4232.000000	996.306533	995.074629	2430373.984256
4234.000000	1043.196474	1021.839931	1389586.508551
4236.000000	851.071791	825.030728	2768477.807188
4238.000000	1019.150492	973.794974	2659279.479287
4240.000000	999.577463	1043.009433	1199643.550818
4242.000000	953.504147	974.564487	628140.240235
4244.000000	931.457974	956.336533	320760.342040
4246.000000	849.909826	822.637204	74182.502689
4248.000000	818.744361	772.434904	122590.069783
4250.000000	776.671801	773.165588	187938.488002
4252.000000	978.329279	973.072790	877949.695805
4254.000000	952.162784	988.127291	1012316.590895
4256.000000	915.054390	972.278574	1492222.189084
4258.000000	1012.283106	975.457646	2872536.182820
4260.000000	958.836566	960.898941	3599507.881742
4262.000000	1105.077748	1098.846454	1634407.645778
4264.000000	961.226375	928.447981	2625118.619045
4266.000000	968.745199	947.953049	2399492.084853
4268.000000	939.956554	914.863654	1900364.675046
4270.000000	1161.759784	1151.667567	1437277.207636
4272.000000	1213.701041	1180.711230	2977104.726616
4274.000000	1462.422979	1358.804414	3551171.779165
4276.000000	1438.148288	1368.664152	2082287.414686
4278.000000	1100.982414	1034.922891	3076565.806890
4280.000000	945.901441	1047.216319	3707228.431123
4282.000000	997.647301	1023.036641	2592601.065690
4284.000000	949.336283	810.358094	1057700.320325
4286.000000	956.569673	1021.596577	1555766.903448
4288.000000	908.611165	987.641827	1685561.960479
4290.000000	839.598584	757.540921	1374293.885032
4292.000000	771.427302	800.582803	1879330.402302
4294.000000	857.987214	905.466937	2739011.670160
4296.000000	904.285596	920.770487	3015418.989285
4298.000000	915.869756	864.976029	1956576.168859
4300.000000	885.170939	964.002473	2599520.241154
4302.000000	902.776709	911.827168	3055075.801165
4304.000000	789.862475	809.944998	2213075.771938
4306.000000	769.856762	735.964026	1254585.358999
4308.000000	875.723110	915.272056	1778310.721082
4310.000000	854.727052	770.590619	1111921.079982
4312.000000	856.057023	762.104800	517367.035640
4314.000000	822.083341	861.227629	490752.228050
4316.000000	842.923530	900.792314	592544.285124
4318.000000	988.411738	921.646697	425174.103758
4320.000000	1196.077224	1195.403121	365037.314456
4322.000000	1427.602083	1462.922756	1048277.370065
4324.000000	1087.867272	1186.456589	814918.243037
4326.000000	1071.218764	1166.418791	644184.467021
4328.000000	1030.900199	989.669588	548519.159768
4330.000000	1626.917975	1692.570960	730706.131767
4332.000000	1841.085586	1814.549991	824093.499571
4334.000000	1740.246842	1782.270614	303111.910261
4336.000000	1086.161026	985.669579	501982.581974
4338.000000	1050.857441	1024.370348	253878.001243
4340.000000	897.315779	877.448357	241761.091781
4342.000000	966.893653	1016.730589	157157.974910
4344.000000	865.589949	745.512415	238254.769962
4346.000000	823.330982	805.482864	46133.721554
4348.000000	943.505126	849.174305	26096.294985
4350.000000	919.928472	905.779823	75227.555004
4352.000000	907.744857	933.501203	101692.266656
4354.000000	960.291819	924.282656	37238.375136
4356.000000	855.589581	848.763284	57866.633325
4358.000000	823.226420	786.737437	89167.369288
4360.000000	823.639955	836.045898	29410.732995
4362.000000	942.034236	868.234341	65274.480609
4364.000000	800.024505	717.560869	184522.775840
4366.000000	815.119395	839.382375	472677.313011
4368.000000	822.613178	715.712619	571326.180403
4370.000000	937.945099	988.442102	454711.552646
4372.000000	894.629730	903.931865	1068516.277594
4374.000000	934.709492	882.295722	1255818.122964
4376.000000	940.607720	1093.562678	1162980.984144
4378.000000	925.148760	882.589071	1080663.788665
4380.000000	1025.798054	992.058101	1096939.739288
4382.000000	866.170278	836.202509	923703.907087
4384.000000	826.799940	824.176813	340310.117489
4386.000000	927.045877	814.199616	577944.572028
4388.000000	1319.887100	1321.895311	356577.572086
4390.000000	943.895545	1002.893789	189660.601363
4392.000000	1578.939359	1519.973651	180616.024727
4394.000000	1203.818748	1067.803578	126688.689738
4396.000000	995.260076	831.166313	206918.234158
4398.000000	1250.634974	1140.508869	136010.759071
4400.000000	1271.072953	1120.286272	203930.249636
4402.000000	1163.192418	1170.337375	107170.816268
4404.000000	930.945176	855.891151	146281.823603
4406.000000	2251.151409	2278.217060	32007.042029
4408.000000	999.651213	981.006509	43110.851415
4410.000000	1030.037949	969.883455	42382.466176
4412.000000	1042.498376	1010.026397	29460.912296
4414.000000	1878.483789	1879.676783	29769.527497
4416.000000	937.084144	754.844821	149447.728186
4418.000000	665.121023	650.319302	106496.748000
4420.000000	695.291070	685.922329	132261.011941
4422.000000	730.183450	760.821686	97842.600611
4424.000000	695.109695	664.664578	255224.827112
4426.000000	703.730402	735.186581	212597.369049
4428.000000	664.045568	643.474690	243941.978787
4430.000000	890.375476	841.077320	200398.292670
4432.000000	763.188061	829.619722	294035.493560
4434.000000	887.713372	919.211460	152682.502100
4436.000000	954.330133	981.550824	339272.548761
4438.000000	1095.989370	1115.384669	420886.451097
4440.000000	1227.022803	1183.365900	303291.827242
4442.000000	1317.760461	1295.520088	450414.771728
4444.000000	2878.853151	3316.550886	848464.247838
4446.000000	527.764163	500.846393	67229.134987
4448.000000	1.676107	1.584301	38.133655
4450.000000	2317.266474	2342.514788	469245.414854
4452.000000	0.658848	0.635546	62.608092
4454.000000	0.429667	0.396153	27.977277
4456.000000	0.640198	0.601854	7.079079
4458.000000	0.546051	0.562300	10.675906
4460.000000	0.557246	0.512061	3.130155
4462.000000	0.104422	0.100497	7.884108
4464.000000	0.121615	0.140646	25.097743
4466.000000	0.214372	0.234541	15.009727
4468.000000	0.420596	0.439739	9.661083
4470.000000	0.140984	0.139112	12.114126
4472.000000	0.105616	0.104474	23.369155
4474.000000	0.148798	0.140199	13.121957
4476.000000	0.098960	0.100829	8.993317
4478.000000	0.087477	0.081260	8.343181
4480.000000	0.097334	0.107691	8.448814
4482.000000	0.097211	0.095121	8.302600
4484.000000	0.089554	0.091178	2.922263
4486.000000	0.102571	0.095400	3.817446
4488.000000	0.080378	0.079252	3.507458
4490.000000	0.084078	0.081105	3.725033
4492.000000	0.077299	0.077111	1.729857
4494.000000	0.075968	0.073983	0.986872
4496.000000	0.100442	0.097175	7.935940
4498.000000	0.041083	0.045408	3.543484
4500.000000	0.045628	0.046041	2.147657
4502.000000	0.044281	0.043990	2.684724
4504.000000	0.039581	0.036353	2.246768
4506.000000	0.049025	0.048005	3.306613
4508.000000	0.044231	0.045458	3.312746
4510.000000	0.038854	0.038867	2.449223
4512.000000	0.042351	0.040178	3.763840
4514.000000	0.041954	0.044404	3.141479
4516.000000	0.035795	0.038184	3.768902
4518.000000	0.037744	0.036170	3.343169
4520.000000	0.037442	0.038798	3.731247
4522.000000	0.040260	0.040992	3.068516
4524.000000	0.035145	0.035875	2.690026
4526.000000	0.040438	0.039196	4.822504
4528.000000	0.035577	0.039185	1.977359
4530.000000	0.039307	0.039771	3.931109
4532.000000	0.045805	0.054691	3.582714
4534.000000	0.037923	0.038479	2.936500
4536.000000	0.045978	0.048107	3.578112
4538.000000	0.040893	0.038164	2.452509
4540.000000	0.048134	0.052666	3.509577
4542.000000	0.046059	0.045444	3.153597
4544.000000	0.042901	0.038760	3.757979
4546.000000	0.045416	0.047919	3.897368
4548.000000	0.045336	0.047641	5.283175
4550.000000	0.042480	0.039600	3.495941
4552.000000	0.048443	0.046998	3.074000
4554.000000	0.039640	0.044017	3.853937
4556.000000	0.043026	0.040379	2.981335
4558.000000	0.039527	0.037070	2.913859
4560.000000	0.048440	0.053151	2.780929
4562.000000	0.037709	0.038950	2.353166
4564.000000	0.041995	0.047974	3.709963
4566.000000	0.043632	0.042498	2.272023
4568.000000	0.044637	0.043102	4.233251
4570.000000	0.044796	0.044554	2.700506
4572.000000	0.041052	0.040135	3.341970
4574.000000	0.040209	0.037092	3.295307
4576.000000	0.036826	0.039475	3.469703
4578.000000	0.039231	0.042850	3.296119
4580.000000	0.043770	0.040951	2.897247
4582.000000	0.036111	0.038929	4.247793
4584.000000	0.040851	0.038582	3.105111
4586.000000	0.034277	0.033763	3.083676
4588.000000	0.040942	0.041211	2.969224
4590.000000	0.045352	0.048064	3.932843
4592.000000	0.042857	0.041768	3.034169
4594.000000	0.039665	0.041528	3.077406
4596.000000	0.043156	0.045301	2.994413
4598.000000	0.041191	0.038994	4.501776
4600.000000	0.037875	0.035282	6.620852
4602.000000	0.043970	0.044280	3.947961
4604.000000	0.037137	0.036548	2.311039
4606.000000	0.037010	0.038560	2.770405
4608.000000	0.037341	0.036294	2.987344
4610.000000	0.039276	0.039729	3.136094
4612.000000	0.040802	0.040774	2.444539
4614.000000	0.036041	0.037977	4.398257
4616.000000	0.030444	0.028963	4.613670
4618.000000	0.034181	0.033259	2.944694
4620.000000	0.032466	0.031843	4.395187
4622.000000	0.035406	0.032770	4.917542
4624.000000	0.036455	0.036116	3.133992
4626.000000	0.035214	0.034558	3.198607
4628.000000	0.030870	0.033874	2.507721
4630.000000	0.034317	0.031508	3.453163
4632.000000	0.034675	0.046432	7.372639
4634.000000	0.039171	0.040790	3.111024
4636.000000	0.036332	0.041619	3.378781
4638.000000	0.037424	0.039329	4.746825
4640.000000	0.039582	0.035668	3.426947
4642.000000	0.041709	0.039895	3.444903
4644.000000	0.041374	0.043722	3.125606
4646.000000	0.045287	0.043480	2.615229
4648.000000	0.041428	0.041948	2.333449
4650.000000	0.037165	0.035089	4.376922
4652.000000	0.040127	0.037769	3.994387
4654.000000	0.035811	0.036874	3.121734
4656.000000	0.037762	0.034909	3.093267
4658.000000	0.038463	0.034519	3.164239
4660.000000	0.038067	0.040526	3.674213
4662.000000	0.037864	0.036324	3.557261
4664.000000	0.040656	0.038608	4.139650
4666.000000	0.032711	0.032276	3.767894
4668.000000	0.036051	0.037913	4.334866
4670.000000	0.034322	0.034746	4.366264
4672.000000	0.036300	0.035809	2.813620
4674.000000	0.032437	0.033595	2.962146
4676.000000	0.034111	0.032499	3.659363
4678.000000	0.029944	0.028963	4.127042
4680.000000	0.037052	0.036463	3.249850
4682.000000	0.033319	0.032308	3.374358
4684.000000	0.033688	0.032408	4.019537
4686.000000	0.030478	0.026753	2.595553
4688.000000	0.030801	0.031720	3.555677
4690.000000	0.031627	0.030768	3.390901
4692.000000	0.030153	0.031388	2.931125
4694.000000	0.031132	0.030634	5.456856
4696.000000	0.036132	0.036647	4.591141
4698.000000	0.035310	0.037580	3.769579
4700.000000	0.031619	0.030960	3.776333
4702.000000	0.032607	0.035026	2.350336
4704.000000	0.032683	0.030320	3.522655
4706.000000	0.031069	0.031733	3.569852
4708.000000	0.036508	0.031689	2.986926
4710.000000	0.033904	0.033281	4.434946
4712.000000	0.033998	0.031756	3.675472
4714.000000	0.034913	0.031451	3.642219
4716.000000	0.031470	0.032066	3.396457
4718.000000	0.034146	0.032971	3.866687
4720.000000	0.028116	0.024707	3.055532
4722.000000	0.030014	0.030119	2.562451
4724.000000	0.030916	0.028532	3.471560
4726.000000	0.033731	0.033777	2.648097
4728.000000	0.031296	0.030645	3.855002
4730.000000	0.029820	0.030132	2.999883
4732.000000	0.033153	0.033902	4.062193
4734.000000	0.028940	0.031605	4.637933
4736.000000	0.029681	0.030714	3.467920
4738.000000	0.031666	0.030986	3.607060
4740.000000	0.035383	0.032704	3.330134
4742.000000	0.033716	0.033406	3.222572
4744.000000	0.029542	0.034906	3.186409
4746.000000	0.029110	0.028483	2.976198
4748.000000	0.034403	0.035425	3.406299
4750.000000	0.031153	0.031033	3.989896
4752.000000	0.030320	0.032336	2.667202
4754.000000	0.030948	0.033487	3.844057
4756.000000	0.028883	0.027412	3.471391
4758.000000	0.033052	0.033684	3.879504
4760.000000	0.030611	0.029510	4.006977
4762.000000	0.033260	0.032096	3.851281
4764.000000	0.028018	0.026884	3.446460
4766.000000	0.031707	0.029968	4.354633
4768.000000	0.033280	0.037418	4.115095
4770.000000	0.030159	0.029722	3.888201
4772.000000	0.034063	0.033091	3.753655
4774.000000	0.032004	0.035548	4.322999
4776.000000	0.027791	0.027152	3.399091
4778.000000	0.031781	0.030583	3.366513
4780.000000	0.028787	0.028393	2.992897
4782.000000	0.032114	0.029940	2.894621
4784.000000	0.029410	0.029521	3.284163
4786.000000	0.026220	0.025788	3.538347
4788.000000	0.030332	0.029029	4.202391
4790.000000	0.027981	0.028384	4.039464
4792.000000	0.030768	0.028920	3.443179
4794.000000	0.028236	0.028691	3.756277
4796.000000	0.028447	0.027238	4.275131
4798.000000	0.027139	0.024428	2.900259
4800.000000	0.031219	0.028630	4.195349
4802.000000	0.028478	0.028831	2.983286
4804.000000	0.030654	0.032593	3.048159
4806.000000	0.033526	0.035527	3.970281
4808.000000	0.026936	0.025089	4.375030
4810.000000	0.031856	0.032187	5.134329
4812.000000	0.028758	0.027865	3.442203
4814.000000	0.028835	0.034666	4.237449
4816.000000	0.027148	0.024538	3.577112
4818.000000	0.024716	0.022784	4.058464
4820.000000	0.028574	0.029231	4.271968
4822.000000	0.030910	0.034355	3.460266
4824.000000	0.027854	0.027517	4.820633
4826.000000	0.031946	0.031559	5.057769
4828.000000	0.031168	0.035636	3.503485
4830.000000	0.030150	0.029890	3.421954
4832.000000	0.029407	0.032807	4.213112
4834.000000	0.024510	0.023713	3.876233
4836.000000	0.024765	0.025421	3.854328
4838.000000	0.025630	0.023880	4.099980
4840.000000	0.027641	0.027765	3.741923
4842.000000	0.024276	0.025272	3.757529
4844.000000	0.031224	0.031188	3.661895
4846.000000	0.024497	0.025466	3.780196
4848.000000	0.026624	0.027369	3.058203
4850.000000	0.023292	0.020550	3.393903
4852.000000	0.025943	0.030250	4.196592
4854.000000	0.029018	0.028650	3.188456
4856.000000	0.025919	0.023863	4.510369
4858.000000	0.026785	0.028420	3.778479
4860.000000	0.031123	0.027399	2.688342
4862.000000	0.030560	0.031270	4.704264
4864.000000	0.029744	0.027097	3.856819
4866.000000	0.028530	0.027262	5.189022
4868.000000	0.028322	0.027978	4.238877
4870.000000	0.023326	0.023974	4.886180
4872.000000	0.030776	0.035242	3.720876
4874.000000	0.027777	0.026158	3.432966
4876.000000	0.030718	0.031967	3.907665
4878.000000	0.029146	0.027393	3.631067
4880.000000	0.028872	0.030097	4.759568
4882.000000	0.025678	0.023305	3.762421
4884.000000	0.027260	0.026097	4.266134
4886.000000	0.028504	0.026990	4.521663
4888.000000	0.027868	0.028439	4.697578
4890.000000	0.029119	0.026937	4.503678
4892.000000	0.030997	0.033770	4.151945
4894.000000	0.025486	0.025765	3.240433
4896.000000	0.024195	0.024637	4.163704
4898.000000	0.024967	0.026056	3.474159
4900.000000	0.026888	0.029883	3.432747
4902.000000	0.029185	0.032640	3.350410
4904.000000	0.021736	0.021999	4.071023
4906.000000	0.022970	0.018983	4.131344
4908.000000	0.026367	0.028207	3.268156
4910.000000	0.030091	0.027587	4.270602
4912.000000	0.027494	0.029369	3.816415
4914.000000	0.031053	0.033965	4.708066
4916.000000	0.029542	0.027882	5.057414
4918.000000	0.029316	0.026998	4.952677
4920.000000	0.031240	0.029255	4.384977
4922.000000	0.028083	0.030204	5.938676
4924.000000	0.028141	0.025896	4.862968
4926.000000	0.029644	0.033764	4.258483
4928.000000	0.030744	0.030871	4.342191
4930.000000	0.030600	0.029985	4.560386
4932.000000	0.031238	0.033807	3.936367
4934.000000	0.029776	0.030004	4.612809
4936.000000	0.029368	0.027710	4.290464
4938.000000	0.028892	0.027751	3.546301
4940.000000	0.033229	0.029537	3.472934
4942.000000	0.030481	0.030483	4.887326
4944.000000	0.031923	0.035052	3.229961
4946.000000	0.028783	0.028044	3.432486
4948.000000	0.026680	0.027875	4.851758
4950.000000	0.025941	0.025483	3.814149
4952.000000	0.030425	0.031860	3.379169
4954.000000	0.030886	0.032096	4.679148
4956.000000	0.025773	0.024372	4.004740
4958.000000	0.028299	0.023108	4.499372
4960.000000	0.026606	0.023528	5.334801
4962.000000	0.030008	0.028741	4.494805
4964.000000	0.026249	0.025354	4.471388
4966.000000	0.031291	0.033919	3.546410
4968.000000	0.030068	0.030045	3.648432
4970.000000	0.033863	0.033903	4.428819
4972.000000	0.030066	0.026778	4.235304
4974.000000	0.031575	0.031009	4.497533
4976.000000	0.034333	0.031136	3.980220
4978.000000	0.032671	0.027370	5.147328
4980.000000	0.036569	0.035632	3.621499
4982.000000	0.033851	0.032185	3.717670
4984.000000	0.036160	0.034456	5.057366
4986.000000	0.033280	0.029962	5.650987
4988.000000	0.029589	0.033061	3.758684
4990.000000	0.032258	0.033905	3.700706
4992.000000	0.033172	0.034197	3.634107
4994.000000	0.032940	0.032394	3.585781
4996.000000	0.035154	0.038490	3.419016
4998.000000	0.033063	0.033056	3.219323
5000.000000	0.029046	0.032798	4.802112
5002.000000	0.027629	0.024750	4.028633
5004.000000	0.031438	0.027917	4.092017
5006.000000	0.030451	0.033894	3.482885
5008.000000	0.029530	0.031284	4.036345
5010.000000	0.026997	0.026781	4.634460
5012.000000	0.030557	0.028617	4.571179
5014.000000	0.030069	0.027054	3.146858
5016.000000	0.031190	0.032429	3.242631
5018.000000	0.032410	0.032236	5.375131
5020.000000	0.031237	0.031346	4.096058
5022.000000	0.034994	0.035152	3.144677
5024.000000	0.033229	0.037415	4.250325
5026.000000	0.033515	0.035199	3.239034
5028.000000	0.033257	0.034660	3.952139
5030.000000	0.032078	0.034223	4.354160
5032.000000	0.033728	0.036084	4.024352
5034.000000	0.035476	0.029944	4.364239
5036.000000	0.036263	0.034465	3.510153
5038.000000	0.039393	0.035060	4.138444
5040.000000	0.037121	0.036578	3.701611
5042.000000	0.032369	0.031608	4.518892
5044.000000	0.038294	0.040742	3.178146
5046.000000	0.037103	0.036906	4.528723
5048.000000	0.039253	0.036507	4.193213
5050.000000	0.031823	0.034567	2.920946
5052.000000	0.032571	0.030570	4.705028
5054.000000	0.029959	0.029061	4.433115
5056.000000	0.032534	0.031728	4.647990
5058.000000	0.029871	0.029054	3.901238
5060.000000	0.029958	0.030808	2.764688
5062.000000	0.028699	0.027143	3.463630
5064.000000	0.035708	0.031621	3.327360
5066.000000	0.031887	0.032349	4.744673
5068.000000	0.033356	0.029134	3.900834
5070.000000	0.033798	0.034716	5.015436
5072.000000	0.034733	0.031836	4.274216
5074.000000	0.030266	0.031122	4.654928
5076.000000	0.033073	0.038483	4.036705
5078.000000	0.035450	0.032140	4.226205
5080.000000	0.033931	0.033535	4.809243
5082.000000	0.039341	0.041245	3.824510
5084.000000	0.037377	0.036591	4.533482
5086.000000	0.039329	0.036193	4.342128
5088.000000	0.037424	0.035611	4.100680
5090.000000	0.054581	0.056209	2.980932
5092.000000	0.039463	0.039409	4.336715
5094.000000	0.037951	0.034272	7.390253
5096.000000	0.033889	0.033376	3.582588
5098.000000	0.033280	0.032288	4.014701
5100.000000	0.038113	0.036606	5.263899
5102.000000	0.035155	0.032303	4.176009
5104.000000	0.035915	0.035366	4.690719
5106.000000	0.041051	0.044291	5.151525
5108.000000	0.157707	0.152328	11.378221
5110.000000	0.084814	0.073508	10.621478
5112.000000	0.098458	0.115572	2.655264
5114.000000	0.093455	0.098984	3.930381
5116.000000	0.107739	0.113161	3.412326
5118.000000	0.140961	0.149561	1.974950
5120.000000	0.103664	0.101845	4.143478
5122.000000	0.102152	0.096384	2.736283
5124.000000	0.105670	0.115674	5.082898
5126.000000	0.138559	0.145138	5.633661
5128.000000	0.125248	0.130418	3.805167
5130.000000	0.127868	0.122618	4.260986
5132.000000	0.146891	0.148764	12.449891
5134.000000	0.159678	0.159549	3.257132
5136.000000	0.151799	0.152459	4.774300
5138.000000	0.144145	0.139469	16.390267
5140.000000	0.144283	0.142861	4.446728
5142.000000	0.157259	0.156167	3.482787
5144.000000	0.145964	0.132093	7.739508
5146.000000	0.110828	0.112408	4.745968
5148.000000	0.123718	0.132059	4.425240
5150.000000	0.126121	0.130930	12.165350
5152.000000	0.101653	0.097422	4.353749
5154.000000	0.108030	0.093847	2.961717
5156.000000	0.104342	0.097547	4.116138
5158.000000	0.880006	0.898939	6.878595
5160.000000	0.713793	0.672452	12.259003
5162.000000	0.832487	0.842779	5.696166
5164.000000	0.723467	0.756659	12.163500
5166.000000	0.813538	0.737526	7.384302
5168.000000	0.659985	0.622400	6.459996
5170.000000	0.724038	0.682854	5.493647
5172.000000	0.650798	0.591956	5.004766
5174.000000	0.587446	0.569910	6.448107
5176.000000	0.681815	0.618620	2.229288
5178.000000	0.618107	0.600352	5.422627
5180.000000	0.534464	0.585791	10.356263
