

# Fd
# Scan parameters: power 16.000000 dBm, bandwidth 1.500000 Hz
# Frequency [MHz]	avg noise	std noise	peak value
3851.000000	287.456734	299.508406	57959.622022
3853.000000	268.956696	243.135123	28451.383374
3855.000000	290.035195	303.731264	27496.023022
3857.000000	278.740531	303.305735	49564.510760
3859.000000	298.144114	311.863159	12034.181446
3861.000000	306.533591	309.458970	6328.381868
3863.000000	297.687731	299.066424	3002.097669
3865.000000	288.766030	310.494415	11458.668559
3867.000000	330.324861	328.958024	11284.971957
3869.000000	283.169335	274.813027	55092.661902
3871.000000	342.502460	355.905560	47756.671741
3873.000000	336.363344	321.332759	39011.880478
3875.000000	310.574571	292.638699	119616.992704
3877.000000	338.822432	336.578006	185861.877821
3879.000000	327.044105	293.989941	145729.306264
3881.000000	297.316041	300.392255	155957.677669
3883.000000	325.921226	337.717512	242827.653841
3885.000000	298.028797	288.944496	156086.508426
3887.000000	336.228402	327.940565	81708.539374
3889.000000	308.687730	294.610049	150511.894031
3891.000000	325.910406	342.390854	196276.097385
3893.000000	277.825815	251.678145	335739.593882
3895.000000	285.605064	303.510322	245792.413236
3897.000000	280.628154	309.969975	385101.558526
3899.000000	306.326025	347.496039	493485.709652
3901.000000	287.563732	334.474289	148091.665274
3903.000000	300.028802	301.300874	285487.695822
3905.000000	288.650180	291.175688	513601.255751
3907.000000	291.327229	286.226045	303735.270270
3909.000000	290.991703	273.771459	132436.637103
3911.000000	302.414792	288.028733	356547.965992
3913.000000	315.524371	336.142891	417031.650808
3915.000000	311.795274	349.828552	169780.074641
3917.000000	320.030682	287.976941	192527.688537
3919.000000	297.843671	318.552823	180967.956447
3921.000000	301.773722	323.092761	241087.794418
3923.000000	348.332055	360.393467	128864.052331
3925.000000	299.568415	260.961723	381010.156847
3927.000000	299.259895	299.742285	428940.893892
3929.000000	313.461691	271.261131	410623.883637
3931.000000	324.476930	351.988089	437889.668531
3933.000000	322.979060	307.200562	877640.924576
3935.000000	326.279733	326.682652	986941.893741
3937.000000	364.943920	373.622818	565100.523364
3939.000000	370.120573	355.723977	833987.574917
3941.000000	323.681367	342.348827	925058.204082
3943.000000	316.756524	296.477632	529526.868106
3945.000000	324.509168	338.271209	265041.384954
3947.000000	306.742283	318.630277	429572.702666
3949.000000	389.185150	391.163018	479301.480175
3951.000000	293.896176	289.094674	245966.430711
3953.000000	376.232168	376.383755	444803.657419
3955.000000	348.284862	322.197311	761954.184721
3957.000000	343.289286	359.144912	915584.257583
3959.000000	397.278526	342.123640	455702.163031
3961.000000	357.144894	309.870189	1032703.135804
3963.000000	355.192202	345.648229	1200095.082266
3965.000000	382.044602	417.339793	907194.374564
3967.000000	372.314075	355.922804	749921.136095
3969.000000	450.876909	458.764396	1044089.495512
3971.000000	381.349385	353.120148	751368.115346
3973.000000	449.322345	531.304128	399769.015536
3975.000000	393.183882	382.772824	1332831.901405
3977.000000	464.636149	468.343985	1342419.244975
3979.000000	427.053658	415.054669	1556989.052720
3981.000000	399.683210	367.297646	1417704.641383
3983.000000	460.666547	485.175171	2328886.318938
3985.000000	421.776641	480.951137	2221940.286243
3987.000000	390.048789	371.605821	1263020.268731
3989.000000	390.880591	413.506136	1982973.233600
3991.000000	353.479901	362.048189	1839164.014474
3993.000000	382.843466	379.908333	1382224.970956
3995.000000	366.832644	338.150640	759648.624613
3997.000000	407.084667	426.067175	842547.767520
3999.000000	377.681957	418.331374	757302.827627
4001.000000	442.862985	439.210519	666444.160470
4003.000000	413.554827	389.237899	671267.362033
4005.000000	424.856086	399.014669	839902.913569
4007.000000	445.709604	481.287397	469818.427401
4009.000000	415.546979	427.823175	282247.615694
4011.000000	448.161779	485.216081	575956.569444
4013.000000	402.854920	406.233872	805825.358629
4015.000000	406.743941	346.892122	236209.278673
4017.000000	400.422689	372.904758	218352.279954
4019.000000	417.791374	434.002425	178324.131718
4021.000000	399.171475	442.445618	305006.550039
4023.000000	412.885259	422.756293	172604.952019
4025.000000	438.536199	415.845880	465928.461252
4027.000000	469.522802	405.550650	302859.282819
4029.000000	431.988263	423.427271	115375.159584
4031.000000	426.189079	388.138691	131585.757564
4033.000000	498.036101	454.669797	200094.971198
4035.000000	428.719565	419.179469	250402.107635
4037.000000	452.054015	437.627738	35565.196077
4039.000000	415.714971	376.427441	47028.628590
4041.000000	410.896530	408.927719	60290.740311
4043.000000	493.390543	536.229273	95893.062163
4045.000000	431.724356	497.272713	68641.626198
4047.000000	437.405035	428.312622	125100.108094
4049.000000	440.394292	405.916891	314973.002745
4051.000000	473.373094	533.072722	322987.556748
4053.000000	529.193827	574.825143	349554.013119
4055.000000	481.948230	535.243611	428345.786831
4057.000000	476.050162	524.636417	567602.185405
4059.000000	573.230854	610.317897	222091.420703
4061.000000	478.004860	516.972688	438404.212949
4063.000000	509.635330	460.674310	705002.960812
4065.000000	481.291211	462.627381	274744.120527
4067.000000	585.260943	570.582333	388487.828524
4069.000000	451.734248	471.242477	445543.143488
4071.000000	496.166183	496.568615	279117.920348
4073.000000	559.140563	601.504292	82050.589683
4075.000000	485.588577	508.347904	257661.733881
4077.000000	456.457168	435.030431	170199.375004
4079.000000	441.692316	492.825695	191292.865663
4081.000000	482.891876	469.602568	76243.427235
4083.000000	537.132076	605.707621	94054.061301
4085.000000	477.182311	466.391342	126881.288157
4087.000000	510.722843	532.083829	28339.738189
4089.000000	479.584110	434.447171	56287.606865
4091.000000	479.572083	421.251309	130277.616501
4093.000000	566.241670	526.201323	33834.618321
4095.000000	514.861627	470.687671	55128.211566
4097.000000	538.806702	529.693869	168567.400103
4099.000000	486.820617	477.036286	89270.154188
4101.000000	566.805479	576.305317	88793.638782
4103.000000	568.136250	607.451686	73073.034938
4105.000000	529.866127	557.761208	60796.505076
4107.000000	560.447203	528.455002	125355.107554
4109.000000	547.292142	574.617364	58213.032713
4111.000000	569.816024	570.607371	45752.071835
4113.000000	599.535022	594.053266	16810.472112
4115.000000	583.204672	538.775356	21718.788122
4117.000000	541.630289	610.793553	61139.575365
4119.000000	533.434653	473.354852	136288.154919
4121.000000	641.401114	588.363546	48423.489767
4123.000000	831.272621	739.423448	46623.319996
4125.000000	798.957437	829.803106	26021.391381
4127.000000	604.493385	636.459628	32695.272569
4129.000000	677.300416	687.578876	12566.820967
4131.000000	592.251527	625.844062	40072.694390
4133.000000	613.123334	640.773853	86487.076264
4135.000000	612.630770	601.647523	136187.486008
4137.000000	537.004871	528.521494	54080.705368
4139.000000	622.593483	538.076525	80581.146637
4141.000000	628.844496	641.376115	591353.734920
4143.000000	634.637692	621.198017	362591.421387
4145.000000	561.554994	575.994230	194642.670994
4147.000000	600.755333	547.025111	707591.909913
4149.000000	559.659797	601.530458	716505.121907
4151.000000	638.872913	551.922851	421687.039336
4153.000000	657.114778	665.049307	727952.634536
4155.000000	736.968845	699.542435	1250184.449987
4157.000000	835.668376	861.132783	1181849.776599
4159.000000	850.158560	985.907245	497833.528939
4161.000000	729.739592	673.671739	1290903.914408
4163.000000	700.369101	644.716768	2117797.628234
4165.000000	778.841528	757.771491	1054547.821406
4167.000000	808.023061	831.904151	814267.889371
4169.000000	768.512777	727.098874	1234207.762955
4171.000000	741.065145	723.622160	1039722.595200
4173.000000	648.082703	681.890837	444969.748848
4175.000000	649.882014	632.105718	647365.494479
4177.000000	619.279609	621.002015	610981.630226
4179.000000	684.147650	704.837399	730480.386425
4181.000000	678.090458	642.917374	510674.086561
4183.000000	753.532393	725.470245	591474.489785
4185.000000	604.436973	613.300352	543865.061428
4187.000000	796.872124	798.640271	278523.018630
4189.000000	693.000329	726.928856	916568.100977
4191.000000	699.277564	746.390898	1352511.131941
4193.000000	672.745722	639.289690	1144989.155156
4195.000000	749.234781	740.827934	938031.236856
4197.000000	646.416263	710.450597	1516766.205538
4199.000000	630.398901	579.767393	1778060.346106
4201.000000	729.902086	678.995021	925687.841632
4203.000000	642.403540	616.524568	881309.050138
4205.000000	592.661753	635.000606	437659.058891
4207.000000	635.247349	640.356358	194141.895507
4209.000000	732.820119	661.120624	222488.118276
4211.000000	756.172000	760.783232	496696.133447
4213.000000	661.698056	638.640534	795825.101200
4215.000000	776.115550	692.814668	328112.633633
4217.000000	735.617906	746.403410	615929.785741
4219.000000	618.716886	580.071570	1329760.842527
4221.000000	727.506989	686.876670	1234839.263917
4223.000000	735.216083	712.186265	703507.200026
4225.000000	700.396896	720.897475	1332982.981164
4227.000000	643.893498	682.607414	1376950.920132
4229.000000	674.630228	709.987924	477434.800713
4231.000000	678.364995	677.778704	433045.555207
4233.000000	697.098173	670.835056	581917.361497
4235.000000	654.359939	719.977022	534175.006842
4237.000000	620.130219	584.372756	425930.482675
4239.000000	596.406520	564.644010	496354.615372
4241.000000	647.627574	673.316804	443514.223241
4243.000000	704.804355	727.905505	232613.262561
4245.000000	601.497895	566.452828	81967.675884
4247.000000	597.314870	633.121038	22575.867398
4249.000000	645.955277	632.424043	30795.037286
4251.000000	725.528508	660.380362	29109.676030
4253.000000	708.003998	753.535133	202739.076381
4255.000000	732.698564	746.373741	359033.500061
4257.000000	687.405471	622.741175	490576.673453
4259.000000	698.111916	693.858159	370286.356358
4261.000000	672.695137	633.684594	973613.417211
4263.000000	876.554160	997.801573	1058953.709125
4265.000000	689.089901	672.153508	547847.702619
4267.000000	773.585526	788.573432	602378.003325
4269.000000	738.181967	810.096570	1244525.994968
4271.000000	629.454980	629.775785	874252.576536
4273.000000	667.070501	614.469245	410819.364532
4275.000000	777.176856	673.104024	1095757.353936
4277.000000	644.488251	594.589428	1462836.275019
4279.000000	663.959323	695.396175	1026412.150852
4281.000000	672.662019	622.214535	776618.269789
4283.000000	708.450652	806.344183	1067807.248484
4285.000000	712.966486	666.413952	894093.675403
4287.000000	721.113368	686.214181	386713.767687
4289.000000	641.928487	621.408571	714146.010049
4291.000000	616.471282	624.792190	854149.848801
4293.000000	646.116119	611.348143	840649.847353
4295.000000	662.935050	627.998761	546688.375111
4297.000000	633.296026	628.511641	840532.181705
4299.000000	710.605640	766.151800	1299208.483468
4301.000000	628.956317	545.957416	481981.660663
4303.000000	679.035890	705.905254	791968.003111
4305.000000	676.069139	678.970546	1063407.281731
4307.000000	644.041630	672.759488	606392.191896
4309.000000	717.776690	786.948489	340682.453433
4311.000000	689.746111	652.119699	473790.373510
4313.000000	646.564662	610.189902	397279.505243
4315.000000	604.565540	556.468151	205783.011541
4317.000000	803.791987	741.083588	273932.813130
4319.000000	671.529990	616.394477	620602.082087
4321.000000	672.215067	786.474647	454879.412860
4323.000000	722.179207	767.885025	251098.289692
4325.000000	731.179063	733.322107	516697.883264
4327.000000	715.439781	649.026262	401642.524334
4329.000000	740.623098	836.582270	370173.705731
4331.000000	609.237910	622.150436	200842.782580
4333.000000	722.857521	687.450969	249915.352358
4335.000000	690.932422	646.545272	144130.394129
4337.000000	632.124587	684.784092	82706.753670
4339.000000	573.314409	537.748313	106215.471396
4341.000000	609.933027	620.027523	239852.198654
4343.000000	736.228563	738.133446	45847.482999
4345.000000	759.591751	679.362789	94457.431816
4347.000000	662.129421	600.435200	34830.229219
4349.000000	674.453054	753.944250	93202.004507
4351.000000	639.078717	567.345192	51733.418937
4353.000000	641.081477	596.117122	162288.810149
4355.000000	599.583978	639.022909	190861.626035
4357.000000	730.857507	737.432049	154451.271578
4359.000000	716.605430	747.488703	82853.625764
4361.000000	745.484057	702.402942	133233.001680
4363.000000	665.975052	681.051148	345770.496917
4365.000000	716.207116	687.744198	195022.629199
4367.000000	669.545449	668.022511	287936.605871
4369.000000	629.018084	668.387454	311510.762761
4371.000000	692.848726	706.603398	278191.394162
4373.000000	615.224417	546.180542	133929.464989
4375.000000	757.213528	829.652422	184615.689929
4377.000000	754.941164	678.084899	197337.998259
4379.000000	623.290911	626.379080	36968.914546
4381.000000	646.510787	597.035267	28066.728611
4383.000000	814.395216	833.531934	89063.456729
4385.000000	717.446636	720.199906	25879.233919
4387.000000	652.372076	621.875020	77758.263298
4389.000000	724.775124	708.914101	233535.779177
4391.000000	608.168946	608.674946	112466.664752
4393.000000	644.217346	621.960234	154662.840853
4395.000000	617.437442	554.394802	133959.242998
4397.000000	738.685215	737.905743	269344.595942
4399.000000	629.978312	609.603027	128793.490553
4401.000000	644.463368	593.078599	54550.723046
4403.000000	570.563534	602.160876	60988.860033
4405.000000	681.308332	707.698400	33236.285775
4407.000000	596.706324	629.326559	44077.833928
4409.000000	640.104183	666.495685	16001.499953
4411.000000	595.024993	585.468773	42360.950543
4413.000000	583.032657	539.993672	38218.436001
4415.000000	822.589657	729.918080	22808.992252
4417.000000	778.210386	716.019011	40758.442144
4419.000000	776.322071	733.960434	498120.684404
4421.000000	724.358831	773.990471	283731.372414
4423.000000	805.704238	806.020021	102073.322088
4425.000000	860.497157	786.910774	227134.117394
4427.000000	872.449563	874.574302	247407.956070
4429.000000	1035.458301	915.854055	88978.013928
4431.000000	991.868368	1014.478240	100220.506865
4433.000000	1218.809308	1535.266385	148467.525713
4435.000000	979.238469	1006.594727	301621.928468
4437.000000	2493.644834	2799.324565	83418.360955
4439.000000	1658.046895	1763.479041	119584.961728
4441.000000	2004.510166	2149.657201	58654.532420
4443.000000	1851.352050	1936.158147	141607.322727
4445.000000	1421.308572	1398.534078	75437.707754
4447.000000	690.078399	627.912371	35641.977278
4449.000000	668.327980	675.626761	20526.837137
4451.000000	643.835735	684.574593	18044.825483
4453.000000	706.635076	733.252046	27873.737217
4455.000000	664.534009	659.038159	32955.439583
4457.000000	567.593155	579.800799	24661.194024
4459.000000	623.314988	620.027012	17579.038191
4461.000000	603.792387	630.779498	34136.758204
4463.000000	655.643071	637.201496	24078.270612
4465.000000	564.750543	549.696015	21920.286542
4467.000000	736.079932	624.881158	48927.735831
4469.000000	660.585130	632.761046	115845.594787
4471.000000	682.956182	705.851131	152969.018698
4473.000000	672.255463	681.465179	163555.011262
4475.000000	702.353412	794.856690	174802.328938
4477.000000	684.743110	669.675414	89908.766769
4479.000000	654.694660	651.057148	199422.676395
4481.000000	702.033357	723.928866	116487.701226
4483.000000	678.733716	643.835200	155295.080336
4485.000000	794.412589	734.467273	126927.398719
4487.000000	703.693271	700.727200	37865.945113
4489.000000	610.304884	572.503559	65566.720087
4491.000000	825.807060	857.362243	77288.134552
4493.000000	744.236342	780.254027	81640.663711
4495.000000	735.856885	694.811938	106552.796107
4497.000000	888.646357	929.044286	155813.720675
4499.000000	906.015658	835.839287	58065.133552
4501.000000	971.771110	1068.043197	29585.550397
4503.000000	1003.908424	1015.591961	29111.181331
4505.000000	1127.965642	1020.612273	22117.911335
4507.000000	799.585650	794.736814	11721.522171
4509.000000	914.917855	788.545667	41146.850466
4511.000000	1156.426556	1076.039296	52161.059275
4513.000000	1123.749781	1173.445037	45315.427372
4515.000000	1149.656256	1355.458715	61498.097099
4517.000000	1132.183867	1018.189227	64327.409920
4519.000000	1316.922197	1331.698422	144832.316669
4521.000000	1159.342627	1048.827213	42097.902922
4523.000000	937.577206	959.014105	22731.918676
4525.000000	1045.761520	1056.357792	106658.989917
4527.000000	1969.903504	2219.863005	58546.971657
4529.000000	2819.891193	2814.715396	13439.460473
4531.000000	3157.696523	2745.396893	54141.463022
4533.000000	2030.432802	2379.893133	55708.594248
4535.000000	3782.761207	3524.036999	57358.178134
4537.000000	2998.251043	3341.076335	47998.930137
4539.000000	3578.197007	3718.461611	63310.632747
4541.000000	4231.773085	4024.482188	161641.186971
4543.000000	3320.550714	3124.879857	49957.393303
4545.000000	5727.782969	5224.734472	113467.374414
4547.000000	5838.684613	5596.662859	142783.714264
4549.000000	5195.935746	5493.424723	180711.818158
4551.000000	2564.825785	2675.038140	68058.039837
4553.000000	4693.459843	4628.061950	174589.650470
4555.000000	5719.402798	5611.783023	266324.359084
4557.000000	6399.717646	6686.360537	148040.641279
4559.000000	6375.452737	6606.683612	71567.819214
4561.000000	7384.564656	6973.037613	119799.212564
4563.000000	4214.687072	4186.250645	249812.032362
4565.000000	2413.223935	2088.611490	130375.907475
4567.000000	1841.730506	1597.934728	137240.479211
4569.000000	1650.234322	1528.173852	164285.108179
4571.000000	1155.749944	1086.742241	119428.205280
4573.000000	924.971001	919.438531	73754.423606
4575.000000	812.423390	716.837924	277558.565747
4577.000000	741.905545	728.974819	135276.632559
4579.000000	842.389902	789.165696	106958.917375
4581.000000	799.212501	815.118904	81369.690656
4583.000000	760.878080	801.077744	163517.635589
4585.000000	770.208904	715.521338	43465.107509
4587.000000	765.651853	757.520939	62419.424733
4589.000000	758.420171	766.998128	73733.818070
4591.000000	745.337766	889.380431	107687.286210
4593.000000	836.445407	851.720305	29649.393031
4595.000000	719.124870	750.878735	20637.531077
4597.000000	727.295542	704.321539	4094.744475
4599.000000	687.391556	835.172569	38657.621637
4601.000000	692.929731	724.405842	51651.478249
4603.000000	630.856631	617.871619	41080.226951
4605.000000	708.276404	641.608848	141515.641336
4607.000000	700.150419	675.209366	36439.705152
4609.000000	703.437122	730.303632	137557.658588
4611.000000	593.564641	616.556351	352436.732521
4613.000000	595.749623	615.329789	250807.182049
4615.000000	603.688034	579.275224	249286.644823
4617.000000	590.072041	613.446851	256445.201085
4619.000000	608.768939	594.888073	239571.413865
4621.000000	563.956769	564.363635	267078.540859
4623.000000	598.068969	646.186555	107572.595627
4625.000000	626.681493	656.630360	401102.501142
4627.000000	667.697653	620.652878	355033.133339
4629.000000	616.376042	627.889682	255395.753459
4631.000000	584.712839	531.323400	325350.391328
4633.000000	568.766387	584.273380	588348.616790
4635.000000	661.023913	646.394438	854835.301039
4637.000000	697.118847	749.230001	199589.406374
4639.000000	613.150380	578.963655	220855.391192
4641.000000	649.909811	586.245285	88667.952095
4643.000000	663.699630	732.481103	87716.075406
4645.000000	578.358762	586.462530	58599.274895
4647.000000	719.141471	796.405129	31863.381893
4649.000000	728.072484	718.593327	48183.567349
4651.000000	659.664204	595.124311	167838.061827
4653.000000	738.509499	727.549666	63003.964883
4655.000000	662.533676	662.639948	56337.164639
4657.000000	620.786929	642.610716	190396.372620
4659.000000	700.472040	668.351215	77896.901744
4661.000000	602.368806	561.983398	35993.738036
4663.000000	633.254154	619.903982	29445.396475
4665.000000	646.705954	659.292653	44645.655842
4667.000000	653.976142	675.979451	75648.648479
4669.000000	627.222532	628.073786	283126.361956
4671.000000	543.225972	531.875481	87590.746228
4673.000000	592.125742	581.916389	111346.026959
4675.000000	513.232871	556.057744	47834.412266
4677.000000	579.046535	629.061559	179321.061223
4679.000000	597.632408	640.471438	217362.744991
4681.000000	530.140762	512.347864	48780.085820
4683.000000	609.605837	581.555685	26690.459155
4685.000000	624.501875	550.245581	87374.194725
4687.000000	641.963040	598.706459	28144.759528
4689.000000	597.151051	542.327135	53365.646506
4691.000000	622.534784	648.433307	16534.422285
4693.000000	628.928007	673.123233	65642.781910
4695.000000	627.720843	558.492900	142451.323718
4697.000000	677.961791	643.341830	155185.427601
4699.000000	682.731702	682.268435	178640.190473
4701.000000	645.340835	663.460291	33374.385623
4703.000000	648.626101	699.538613	75786.817822
4705.000000	740.904163	711.192602	207777.531492
4707.000000	670.710404	651.689577	394627.445234
4709.000000	686.016649	794.891143	273421.758925
4711.000000	693.262423	683.802014	368538.764571
4713.000000	658.780621	591.506067	689673.394470
4715.000000	572.092698	599.527072	179631.471122
4717.000000	603.280017	547.292603	156418.772352
4719.000000	620.962263	574.725274	251174.194261
4721.000000	611.448463	669.358504	191231.852663
4723.000000	603.921763	572.934187	152175.667440
4725.000000	526.645524	495.807426	458618.560052
4727.000000	619.178166	617.471889	367968.474501
4729.000000	730.027312	677.811092	104259.470294
4731.000000	653.755078	678.224002	110899.174908
4733.000000	639.693359	638.313189	106933.437354
4735.000000	637.039304	676.373272	240310.165853
4737.000000	640.107944	645.169611	122338.773209
4739.000000	649.499561	704.062308	361097.912572
4741.000000	736.086347	702.421360	455545.374674
4743.000000	612.690434	653.073843	482317.828385
4745.000000	794.708760	790.054739	302417.157669
4747.000000	684.915222	649.625988	712638.422534
4749.000000	674.058939	748.814924	516035.222674
4751.000000	633.929856	619.821923	306129.545174
4753.000000	741.253603	767.430116	539914.597729
4755.000000	657.250409	642.917312	855677.541632
4757.000000	780.114402	785.333087	389027.967292
4759.000000	693.825883	638.025673	237019.498981
4761.000000	661.794134	582.267391	481407.800694
4763.000000	686.360286	691.026579	603528.393088
4765.000000	741.059071	705.022449	218866.235905
4767.000000	749.495655	745.055557	187919.038498
4769.000000	735.870995	755.148925	190929.018039
4771.000000	738.353446	684.329328	410580.268959
4773.000000	770.310490	818.802130	191025.582921
4775.000000	679.339481	675.429807	262376.652861
4777.000000	671.603462	694.746975	392896.211114
4779.000000	573.015710	580.369457	469666.211799
4781.000000	585.021553	555.767628	172624.675911
4783.000000	611.345711	656.945189	205355.772251
4785.000000	644.151648	635.211443	339141.352976
4787.000000	642.476009	586.577783	60311.221966
4789.000000	718.066545	707.580361	134026.118663
4791.000000	621.027144	749.764259	58210.970754
4793.000000	661.624700	740.402530	75205.866685
4795.000000	704.584245	661.843996	134097.063915
4797.000000	744.458110	708.456892	156683.858984
4799.000000	691.173599	756.518920	177425.591551
4801.000000	686.195780	658.136049	67058.663176
4803.000000	579.415439	546.051662	269921.188574
4805.000000	729.650128	680.638281	418730.938660
4807.000000	822.433066	770.965400	207238.669196
4809.000000	760.429287	685.307367	213509.520272
4811.000000	744.601585	640.415290	383001.457169
4813.000000	702.124980	761.294058	710372.649962
4815.000000	791.080488	801.960757	375251.193926
4817.000000	721.176845	683.950371	409354.499579
4819.000000	784.493842	770.345828	541703.356281
4821.000000	670.383107	603.528469	550223.036810
4823.000000	818.380817	837.251462	245581.043412
4825.000000	704.411441	686.584122	440088.523751
4827.000000	697.108729	662.499779	666025.572135
4829.000000	693.204811	670.092523	498181.218706
4831.000000	698.341914	678.853749	348545.697280
4833.000000	695.032792	722.215871	689956.238557
4835.000000	655.692131	624.091958	626811.316450
4837.000000	604.006802	535.828472	351673.984672
4839.000000	607.898310	630.880171	563195.577130
4841.000000	571.956549	557.871537	690955.767623
4843.000000	653.316539	674.837968	646228.380652
4845.000000	717.784003	701.642889	398491.781198
4847.000000	668.568596	637.106525	441836.481396
4849.000000	601.304016	615.132799	432509.910632
4851.000000	671.413936	671.680761	104668.941120
4853.000000	627.603758	616.875317	267063.287816
4855.000000	778.387541	739.787455	437131.197037
4857.000000	626.417634	615.315298	571301.189771
4859.000000	738.881693	757.455894	272302.021915
4861.000000	672.362061	663.202435	478929.815045
4863.000000	622.831292	599.898345	992834.887579
4865.000000	768.256502	745.628901	556653.064286
4867.000000	665.919764	741.025655	560828.454009
4869.000000	710.667361	693.426353	1213608.616990
4871.000000	629.401448	677.458370	584803.436322
4873.000000	703.811777	632.604764	279109.347155
4875.000000	670.841092	651.978346	476180.988529
4877.000000	726.357585	728.599353	758992.283208
4879.000000	661.991746	705.353194	412993.860775
4881.000000	689.443453	784.542667	260055.301379
4883.000000	742.573190	739.175000	371457.081756
4885.000000	702.693317	712.260132	301385.974411
4887.000000	724.998229	706.177399	181522.787785
4889.000000	819.313614	694.615803	285541.428903
4891.000000	736.655959	745.162134	525987.343158
4893.000000	619.967781	597.923577	293323.304313
4895.000000	661.483831	744.552014	147149.440962
4897.000000	658.231627	614.658765	91587.752637
4899.000000	613.035335	598.390033	95597.108651
4901.000000	665.955422	690.534491	113382.830015
4903.000000	664.592452	607.499833	39524.288986
4905.000000	601.703830	670.090648	29941.560738
4907.000000	641.930069	673.429012	17235.655944
4909.000000	707.998584	722.260128	77414.676007
4911.000000	744.238113	706.808136	134810.430912
4913.000000	708.808196	701.540627	291923.235062
4915.000000	784.948143	741.152052	112615.190838
4917.000000	735.509527	726.727328	83001.457968
4919.000000	679.546557	635.885024	173523.599996
4921.000000	689.821855	686.282086	124513.518571
4923.000000	664.154376	677.354799	89306.126288
4925.000000	689.702007	775.137732	272873.679994
4927.000000	674.102519	687.011314	305795.545081
4929.000000	724.467729	770.284649	278158.324615
4931.000000	662.088642	647.335277	285024.228320
4933.000000	645.582131	618.581400	391390.360501
4935.000000	650.547822	627.985418	271862.237101
4937.000000	764.274695	791.981726	132506.786614
4939.000000	637.133597	590.003162	185945.259946
4941.000000	744.514501	700.444755	182595.474365
4943.000000	710.422953	725.449330	116022.318243
4945.000000	630.822793	660.388948	55864.542969
4947.000000	661.894039	610.798190	117422.153373
4949.000000	707.207502	745.690513	63480.000130
4951.000000	625.060228	595.604050	161146.820593
4953.000000	624.009026	607.787575	65875.956996
4955.000000	669.592790	595.597008	125846.823281
4957.000000	610.783557	603.577784	76393.503423
4959.000000	638.102665	643.929644	114403.011174
4961.000000	641.617565	654.561076	278872.941020
4963.000000	667.080734	620.324823	509054.857915
4965.000000	775.867835	793.697628	188628.691740
4967.000000	675.710861	671.831308	213834.702989
4969.000000	635.237514	669.895080	136463.910060
4971.000000	668.465894	569.188699	272210.164690
4973.000000	815.519220	791.915126	147163.693326
4975.000000	753.975588	654.929365	411821.123645
4977.000000	812.739321	799.120629	235414.766902
4979.000000	736.449413	751.615747	221639.134029
4981.000000	678.450183	615.695944	68108.346803
4983.000000	727.801996	763.222007	103823.160903
4985.000000	670.735710	660.674655	353632.054533
4987.000000	692.898586	656.911483	107088.574401
4989.000000	641.925176	587.842428	203455.700393
4991.000000	662.063966	619.056221	337562.595194
4993.000000	669.045970	605.493439	246281.371650
4995.000000	652.264067	704.669664	148659.272227
4997.000000	677.663791	714.738382	347076.610174
4999.000000	676.188982	695.711425	175090.931700
5001.000000	581.693160	589.393652	63890.676165
5003.000000	707.027486	710.014259	83879.604538
5005.000000	709.673692	679.725397	87138.899793
5007.000000	739.861499	852.641656	83213.946121
5009.000000	584.427918	668.909400	101181.089663
5011.000000	575.139204	570.992175	245636.581294
5013.000000	672.216088	758.651741	203720.314095
5015.000000	646.302158	621.274576	170042.596000
5017.000000	662.278292	654.853309	151214.919081
5019.000000	717.384053	764.653590	322248.510992
5021.000000	701.332003	714.581865	265733.328493
5023.000000	669.134450	637.171044	190985.093937
5025.000000	686.680400	701.717936	222062.257683
5027.000000	665.508799	700.590117	484589.127434
5029.000000	687.668289	667.219718	417598.991235
5031.000000	707.148478	723.489391	395765.130661
5033.000000	663.741400	685.917362	500417.918101
5035.000000	718.620167	712.198576	455106.071402
5037.000000	663.058581	623.781874	175921.203293
5039.000000	779.322403	871.139126	187407.688471
5041.000000	721.778087	658.293352	189685.785939
5043.000000	662.533806	668.471335	102139.971638
5045.000000	659.986632	674.492121	116319.822921
5047.000000	726.322281	783.216596	281509.932184
5049.000000	697.019766	675.519984	297614.327849
5051.000000	549.466758	525.001522	148799.958384
5053.000000	586.677307	540.299754	357952.196754
5055.000000	642.001362	620.336632	510032.630210
5057.000000	649.728789	598.233961	513159.105259
5059.000000	628.280869	650.466312	261274.554831
5061.000000	577.187005	562.317510	467678.265325
5063.000000	573.379442	545.901852	429284.878086
5065.000000	652.303396	637.594777	247596.643271
5067.000000	665.101117	717.206129	398733.070359
5069.000000	578.604321	496.585607	808667.517899
5071.000000	712.623777	658.099469	556630.347633
5073.000000	638.839888	604.925932	193040.746440
5075.000000	677.563429	680.361336	570149.018195
5077.000000	713.726381	754.234524	456221.581701
5079.000000	657.417298	605.624163	329184.401577
5081.000000	673.280517	672.620403	356265.621911
5083.000000	732.978291	779.428779	666403.006003
5085.000000	709.495124	731.013869	858155.137728
5087.000000	765.674771	712.564477	588658.351666
5089.000000	701.150121	657.574928	1001571.025418
5091.000000	618.903754	545.712486	1177205.161024
5093.000000	647.562589	615.934094	914529.179441
5095.000000	703.515413	711.335181	657517.733535
5097.000000	806.951075	787.672910	970861.218360
5099.000000	732.857928	731.771707	707150.076814
5101.000000	801.257210	719.439880	361146.825391
5103.000000	801.319287	806.271521	470829.320703
5105.000000	777.195003	667.550023	550517.014067
5107.000000	700.106484	631.592322	317435.174415
5109.000000	742.029701	767.458344	142785.408545
5111.000000	642.656608	651.708148	270618.590199
5113.000000	734.196068	723.860119	209229.512916
5115.000000	681.726267	765.427161	227586.081312
5117.000000	606.187515	604.098975	238250.307601
5119.000000	804.162130	755.781621	216550.217960
5121.000000	672.214971	648.896861	247434.389985
5123.000000	586.818666	549.715603	189241.039264
5125.000000	659.742916	673.967945	568226.665651
5127.000000	657.460226	682.099131	473607.997562
5129.000000	586.767232	542.456532	289822.942404
5131.000000	636.152666	648.814430	432185.618838
5133.000000	654.517175	714.161591	799853.881559
5135.000000	831.195707	941.068656	818267.268853
5137.000000	847.870454	961.656067	416930.196892
5139.000000	808.838808	807.462011	810168.557982
5141.000000	683.720247	736.785007	1073133.789642
5143.000000	743.260693	703.300119	700378.440476
5145.000000	784.287216	930.981576	475053.127403
5147.000000	810.312766	830.734229	913750.079851
5149.000000	667.669482	666.258795	801420.642005
5151.000000	640.432664	631.213854	462619.915902
5153.000000	693.104831	747.080979	659121.811268
5155.000000	799.231263	982.561673	888968.789318
5157.000000	696.258905	712.820523	758199.636688
5159.000000	629.985001	652.286593	213717.510704
5161.000000	697.173809	728.479879	427246.374523
5163.000000	779.721117	782.317324	299704.851237
5165.000000	649.039636	662.581615	301206.139303
5167.000000	667.217932	667.235775	393581.895018
5169.000000	684.614255	687.022095	658492.977573
5171.000000	648.955538	584.973261	707110.559393
5173.000000	707.142473	675.770484	476686.583087
5175.000000	681.874225	710.315847	1115765.999561
5177.000000	876.013836	827.705256	1169652.862994
5179.000000	712.872986	784.184399	898173.455947
5181.000000	606.089576	495.439239	834765.757179
5183.000000	696.737776	712.178008	1056235.975607
5185.000000	646.301452	675.301242	1022895.325216
5187.000000	687.151328	652.920990	493704.075427
5189.000000	747.750811	704.425637	733791.587906
5191.000000	706.806513	765.469819	729176.077609
5193.000000	768.713743	690.653813	478485.255765
5195.000000	763.771849	799.835154	304588.615754
5197.000000	868.424151	879.344773	545159.228112
5199.000000	699.920507	718.360470	365520.397361
5201.000000	785.372891	783.609639	157919.324884
5203.000000	740.552297	726.477271	217682.993945
5205.000000	694.568535	770.875695	293239.166283
5207.000000	700.140030	680.037504	246913.095316
5209.000000	591.542074	576.007857	128192.374861
5211.000000	662.792238	611.763410	358004.116122
5213.000000	557.344795	563.115246	338225.415250
5215.000000	565.413894	539.027650	277772.151451
5217.000000	682.032230	593.369466	396770.885274
5219.000000	583.194240	536.324179	408238.831521
5221.000000	662.035713	632.611543	394110.691578
5223.000000	575.395320	496.131101	177180.732595
5225.000000	683.851172	666.953304	189651.176115
5227.000000	603.862570	609.711951	451365.959611
5229.000000	608.596518	666.631440	230849.820394
5231.000000	642.538219	618.139945	289339.830883
5233.000000	554.136489	576.504632	579695.569498
5235.000000	610.827921	595.130681	691974.074291
5237.000000	580.584499	519.965872	416814.882513
5239.000000	671.335778	684.626238	799883.805123
5241.000000	697.684328	656.512584	1123095.076367
5243.000000	762.613500	669.692925	683608.186060
5245.000000	718.180115	742.084603	437616.317371
5247.000000	693.690607	664.880410	687215.956131
5249.000000	863.725734	759.189011	582863.916783
5251.000000	830.954340	867.029624	296654.248810
5253.000000	722.842358	707.196981	302547.088042
5255.000000	787.245456	713.531921	423074.604303
5257.000000	690.009501	710.974848	334425.596533
5259.000000	787.081825	812.742976	251664.559397
5261.000000	874.048927	877.984446	403586.332021
5263.000000	691.122607	686.626898	457486.944443
5265.000000	572.111289	553.427611	248184.942362
5267.000000	638.073522	587.323106	320783.242458
5269.000000	674.952284	628.172536	311388.960264
5271.000000	565.410255	545.414435	388079.929663
5273.000000	588.091393	553.553947	208438.983059
5275.000000	612.807431	655.820375	264927.392923
5277.000000	536.155967	532.551195	429117.980039
5279.000000	616.946639	584.733143	317294.946453
5281.000000	546.825954	557.871632	356774.414489
5283.000000	618.232830	589.863271	546377.330208
5285.000000	607.253302	666.201827	496673.335637
5287.000000	565.685126	606.758768	265198.194962
5289.000000	572.507536	574.578052	437537.211023
5291.000000	592.178373	617.078724	561362.845859
5293.000000	598.846193	550.743941	349209.986185
5295.000000	646.674461	587.101152	184573.634593
5297.000000	624.080850	647.326588	354653.441970
5299.000000	649.034161	723.498865	328029.977559
5301.000000	638.423005	631.932109	245949.990951
5303.000000	544.589225	509.647793	197144.903297
5305.000000	598.612981	530.812944	168934.106434
5307.000000	570.863862	581.223581	118937.914033
5309.000000	558.717680	564.714324	101066.232064
5311.000000	609.522265	551.543468	296611.074314
5313.000000	506.358999	466.311104	584924.113966
5315.000000	572.057697	559.402853	267620.370698
5317.000000	557.729477	491.870451	259487.111199
5319.000000	526.659895	546.989492	124128.809940
5321.000000	573.845862	539.323916	216952.451392
5323.000000	521.168077	482.181518	84122.681385
5325.000000	492.765096	496.080048	51545.166995
5327.000000	581.038253	564.317609	113526.420148
5329.000000	466.717998	498.610035	81982.213258
5331.000000	464.711085	460.232947	93683.414901
5333.000000	509.172507	473.842710	206692.180497
5335.000000	451.711971	460.646910	216528.636333
5337.000000	458.057781	462.992494	128426.617422
5339.000000	461.605021	481.632746	201090.375441
5341.000000	554.935986	615.190233	289784.879791
5343.000000	527.931074	537.095490	226402.798721
5345.000000	415.518675	409.884141	117733.144262
5347.000000	480.084479	499.331780	211040.006518
5349.000000	467.484006	521.813591	266422.205908
5351.000000	566.451152	578.655337	233373.967189
5353.000000	497.322968	456.512652	307603.556838
5355.000000	509.620236	489.728601	434603.121464
5357.000000	525.667341	470.920879	469762.031791
5359.000000	530.949343	533.334748	237860.078314
5361.000000	576.985428	545.477173	440893.421900
5363.000000	509.634767	531.962512	523385.479336
5365.000000	511.271822	525.033908	196847.804199
5367.000000	491.732361	508.610996	274077.685229
5369.000000	517.030697	631.799344	540522.463795
5371.000000	423.317016	443.071010	409715.940893
5373.000000	425.585402	426.010164	224554.307527
5375.000000	437.005582	476.212239	453511.185505
5377.000000	508.370733	497.656267	530460.188013
5379.000000	451.371531	455.075038	538978.524809
5381.000000	470.880232	515.088978	549714.316857
5383.000000	491.011812	470.661250	910361.904673
5385.000000	566.247647	584.222490	769447.921592
5387.000000	389.474461	360.794127	297971.936219
5389.000000	454.715026	449.934419	551237.609682
5391.000000	448.171156	433.444426	630283.194823
5393.000000	422.514749	414.463972	445789.328810
5395.000000	503.607249	485.464056	334514.985608
5397.000000	468.987955	419.178079	632808.704077
5399.000000	441.135371	391.062544	671891.159898
5401.000000	435.136844	452.016602	407262.932722
5403.000000	423.003693	432.818376	446118.990434
5405.000000	415.912484	396.752325	734904.158840
5407.000000	470.141587	446.534154	541183.904384
5409.000000	389.366827	374.730558	428833.784417
5411.000000	431.688448	417.739455	847568.505347
5413.000000	422.518855	400.540052	546867.805617
5415.000000	429.953991	446.591846	324780.725310
5417.000000	478.291698	478.306184	248052.380735
5419.000000	440.975840	458.917388	155619.111710
5421.000000	410.522418	398.250097	314242.182662
5423.000000	423.148743	412.811186	202863.166480
5425.000000	428.329803	392.853204	485405.683700
5427.000000	419.441170	457.235599	505060.871479
5429.000000	405.767341	407.059787	381284.256943
5431.000000	418.550047	355.592916	333581.891079
5433.000000	423.302587	404.598497	564302.792856
5435.000000	446.838331	468.367653	521226.307318
5437.000000	581.736790	617.178041	234015.232394
5439.000000	491.797263	524.523663	435232.085757
5441.000000	429.898056	425.978431	494145.336875
5443.000000	381.907472	400.700818	335446.319097
5445.000000	358.215029	366.647711	219252.652564
5447.000000	355.113594	354.481505	371642.411457
5449.000000	364.020982	346.315895	296939.305624
5451.000000	326.858559	328.677149	94098.028042
5453.000000	394.206029	373.116840	273458.142922
5455.000000	354.143786	333.656582	279481.999817
5457.000000	381.134511	363.024789	288482.186974
5459.000000	375.817271	401.736596	212456.267087
5461.000000	408.848776	404.839525	441577.881957
5463.000000	367.228555	331.204204	661989.870384
5465.000000	347.020705	371.322259	235757.254022
5467.000000	412.379297	413.024556	188630.679576
5469.000000	383.783715	384.043674	219736.559016
5471.000000	351.446978	344.175874	284380.829952
5473.000000	377.862992	377.473372	134263.148853
5475.000000	394.917162	393.780506	138590.824577
5477.000000	408.673348	367.387832	260521.332569
5479.000000	415.997833	418.476317	166516.687287
5481.000000	367.206019	338.634737	201065.751867
5483.000000	312.778178	319.463476	211735.869284
5485.000000	341.643373	356.073450	267868.525002
5487.000000	347.747367	354.748622	97394.005239
5489.000000	365.936313	399.300224	207533.790036
5491.000000	308.836196	295.970681	226604.530262
5493.000000	307.637962	289.539730	124219.094332
5495.000000	354.045497	383.295682	116625.739580
5497.000000	338.858822	366.079588	209208.849206
5499.000000	325.719561	334.272509	218427.808598
5501.000000	313.194148	346.619135	249916.835564
