

# Analyzator reinserted
# Scan parameters: power 16.000000 dBm, bandwidth 1.500000 Hz
# Frequency [MHz]	avg noise	std noise	peak value
3400.000000	0.001951	0.001794	0.321912
3402.000000	0.001909	0.002268	0.351894
3404.000000	0.001778	0.001731	0.349610
3406.000000	0.002119	0.001963	0.277146
3408.000000	0.002010	0.002176	0.233046
3410.000000	0.002152	0.002127	0.402498
3412.000000	0.002163	0.001904	0.292256
3414.000000	0.003039	0.002906	0.325065
3416.000000	0.002628	0.002893	0.199062
3418.000000	0.003695	0.003736	0.192865
3420.000000	0.003944	0.003994	0.285179
3422.000000	0.005387	0.005426	0.273447
3424.000000	0.007511	0.008269	0.280044
3426.000000	0.007323	0.007959	0.220111
3428.000000	0.007513	0.007934	0.350941
3430.000000	0.010322	0.011249	0.270797
3432.000000	0.011457	0.011398	0.257120
3434.000000	0.012989	0.011989	0.266096
3436.000000	0.012729	0.012312	0.181861
3438.000000	0.013648	0.015615	0.114131
3440.000000	0.015505	0.014887	0.331181
3442.000000	0.017256	0.019323	0.336427
3444.000000	0.012322	0.012981	0.157936
3446.000000	0.012902	0.012622	0.323061
3448.000000	0.012728	0.012030	0.339853
3450.000000	0.013057	0.012363	0.104610
3452.000000	0.010735	0.009914	0.406615
3454.000000	0.012936	0.012488	0.458797
3456.000000	0.013603	0.014411	0.374523
3458.000000	0.014236	0.013280	0.356878
3460.000000	0.013734	0.013367	0.496354
3462.000000	0.011721	0.011944	0.546405
3464.000000	0.013191	0.012772	0.202469
3466.000000	0.018056	0.015580	0.526761
3468.000000	0.012365	0.013040	0.352987
3470.000000	0.011092	0.011579	0.831131
3472.000000	0.011259	0.010692	0.070542
3474.000000	0.010103	0.010230	0.731913
3476.000000	0.009198	0.009140	0.215591
3478.000000	0.011656	0.011331	0.418474
3480.000000	0.012299	0.011919	0.235883
3482.000000	0.018510	0.023683	0.191596
3484.000000	0.017355	0.018380	0.200782
3486.000000	0.012095	0.010877	0.240317
3488.000000	0.008727	0.008293	0.109254
3490.000000	0.006907	0.006537	0.294678
3492.000000	0.005983	0.006701	0.355247
3494.000000	0.005338	0.005187	0.399648
3496.000000	0.004180	0.004464	0.262091
3498.000000	0.003911	0.003810	0.356002
3500.000000	0.003449	0.003411	0.405299
3502.000000	0.003165	0.003614	0.230739
3504.000000	0.003283	0.003571	0.319244
3506.000000	0.003120	0.003242	0.253403
3508.000000	0.002733	0.002477	0.309649
3510.000000	0.002819	0.002852	0.205531
3512.000000	0.002550	0.002621	0.428273
3514.000000	0.002682	0.002706	0.310682
3516.000000	0.002113	0.002021	0.130357
3518.000000	0.002217	0.002034	0.293862
3520.000000	0.001954	0.001807	0.228985
3522.000000	0.002958	0.002666	0.457580
3524.000000	0.004447	0.004629	0.280338
3526.000000	0.003551	0.003514	0.294923
3528.000000	0.004671	0.005225	0.362370
3530.000000	0.007991	0.007444	0.277263
3532.000000	0.009441	0.009773	0.095496
3534.000000	0.011720	0.011245	0.294740
3536.000000	0.014891	0.012894	0.341525
3538.000000	0.018605	0.018510	0.107932
3540.000000	0.020944	0.019930	0.258855
3542.000000	0.023726	0.021953	0.447155
3544.000000	0.040685	0.039806	0.840693
3546.000000	0.055897	0.055141	0.400638
3548.000000	0.050306	0.048059	0.516738
3550.000000	0.046189	0.045657	0.201590
3552.000000	0.038388	0.039512	0.329322
3554.000000	0.037727	0.035453	0.174225
3556.000000	0.051551	0.046611	0.247151
3558.000000	0.038392	0.033751	0.231655
3560.000000	0.019413	0.016376	0.536360
3562.000000	0.025151	0.026956	0.326578
3564.000000	0.026383	0.026114	0.295321
3566.000000	0.017029	0.016439	0.122731
3568.000000	0.019105	0.017046	0.345423
3570.000000	0.024368	0.023222	0.492891
3572.000000	0.017396	0.019102	0.224983
3574.000000	0.018280	0.018301	0.274077
3576.000000	0.019149	0.017820	0.427212
3578.000000	0.016585	0.016393	0.336818
3580.000000	0.014464	0.016409	0.206702
3582.000000	0.021888	0.020966	0.179771
3584.000000	0.022555	0.022739	0.168827
3586.000000	0.018327	0.019136	0.422917
3588.000000	0.013307	0.013938	0.949616
3590.000000	0.013463	0.012457	0.163606
3592.000000	0.013891	0.013173	0.427399
3594.000000	0.013228	0.012138	0.761431
3596.000000	0.010969	0.010667	0.380006
3598.000000	0.011181	0.010247	0.187260
3600.000000	0.011399	0.011498	0.629086
3602.000000	0.010442	0.011323	0.272711
3604.000000	0.009093	0.008014	0.214849
3606.000000	0.008933	0.007829	0.475726
3608.000000	0.008674	0.007989	0.277196
3610.000000	0.008662	0.009347	0.518233
3612.000000	0.008119	0.008981	0.409297
3614.000000	0.006489	0.006109	0.196868
3616.000000	0.005478	0.005340	0.367866
3618.000000	0.005469	0.005521	0.220577
3620.000000	0.003775	0.004061	0.185121
3622.000000	0.003872	0.003779	0.900357
3624.000000	0.004041	0.003649	0.432804
3626.000000	0.004199	0.003705	0.273466
3628.000000	0.003819	0.003814	0.531255
3630.000000	0.006283	0.007178	0.466744
3632.000000	0.008458	0.008084	1.588635
3634.000000	0.008103	0.008669	0.585017
3636.000000	0.015464	0.014078	0.389225
3638.000000	0.027422	0.025129	0.659379
3640.000000	0.040456	0.043204	0.366064
3642.000000	0.063536	0.062486	0.643396
3644.000000	0.085122	0.088779	0.416613
3646.000000	0.103142	0.096109	0.783253
3648.000000	0.117514	0.118319	1.167317
3650.000000	0.137181	0.136394	0.461089
3652.000000	0.102883	0.107412	1.276348
3654.000000	0.136726	0.140108	0.751735
3656.000000	0.110535	0.114352	1.353991
3658.000000	0.127121	0.125164	1.046891
3660.000000	0.111044	0.111804	0.682953
3662.000000	0.149454	0.140107	1.050914
3664.000000	0.140848	0.132325	2.527243
3666.000000	0.131832	0.133572	1.842412
3668.000000	0.098868	0.102438	2.948127
3670.000000	0.113839	0.100782	2.798579
3672.000000	0.116062	0.123853	8.553586
3674.000000	0.121326	0.124093	3.049579
3676.000000	0.108722	0.103062	2.616443
3678.000000	0.100565	0.091028	3.781413
3680.000000	0.073898	0.075046	6.463298
3682.000000	0.084358	0.083588	5.360614
3684.000000	0.081102	0.080179	2.231257
3686.000000	0.103296	0.099537	3.565816
3688.000000	0.294207	0.294107	1.846468
3690.000000	0.490675	0.530244	4.862626
3692.000000	0.515578	0.443786	2.884381
3694.000000	0.468912	0.501431	3.819420
3696.000000	0.347807	0.314642	4.173950
3698.000000	0.333453	0.309811	1.682573
3700.000000	0.197588	0.200139	1.378008
3702.000000	0.130281	0.140886	6.405591
3704.000000	0.125502	0.122555	5.851609
3706.000000	0.152552	0.150453	3.947980
3708.000000	0.161784	0.146332	6.398517
3710.000000	0.190640	0.170547	6.688393
3712.000000	0.206937	0.217418	4.496633
3714.000000	0.199314	0.223682	5.105673
3716.000000	0.213824	0.204633	8.407931
3718.000000	0.194201	0.191569	3.459132
3720.000000	0.205369	0.218571	4.793107
3722.000000	0.187044	0.194432	3.358963
3724.000000	0.154385	0.160451	6.781465
3726.000000	0.173670	0.160219	3.353823
3728.000000	0.125783	0.135220	4.024575
3730.000000	0.102231	0.099066	6.517211
3732.000000	0.114730	0.106337	2.827931
3734.000000	0.067488	0.066664	1.624465
3736.000000	0.043223	0.043871	3.758504
3738.000000	0.049775	0.047177	3.914011
3740.000000	0.083406	0.083317	2.604369
3742.000000	0.146261	0.149707	4.122983
3744.000000	0.329220	0.338197	4.858069
3746.000000	0.670775	0.707322	4.151146
3748.000000	0.919255	0.953706	4.462936
3750.000000	1.003097	0.965031	8.251638
3752.000000	1.112085	1.002981	5.953640
3754.000000	1.738367	1.713877	7.550795
3756.000000	1.724718	1.733443	7.816347
3758.000000	1.893097	1.901763	8.943752
3760.000000	1.568126	1.706402	8.424935
3762.000000	0.913819	0.858894	6.758515
3764.000000	0.726938	0.740296	3.888963
3766.000000	0.835705	0.678544	8.245743
3768.000000	1.252600	1.245790	8.012198
3770.000000	1.115753	1.061104	4.667711
3772.000000	1.102077	0.966061	7.451227
3774.000000	0.597510	0.587567	8.144644
3776.000000	0.516348	0.523831	2.434615
3778.000000	0.435807	0.409933	2.403755
3780.000000	0.450657	0.477344	5.662824
3782.000000	0.232733	0.253898	4.264937
3784.000000	0.167961	0.146861	1.010770
3786.000000	0.165792	0.166544	0.961328
3788.000000	0.145196	0.152150	3.839944
3790.000000	0.202813	0.218931	2.033878
3792.000000	0.221106	0.213552	3.909184
3794.000000	0.219483	0.182618	1.889580
3796.000000	0.253393	0.277453	1.258082
3798.000000	0.229810	0.225681	1.554137
3800.000000	0.243870	0.231220	1.287996
3802.000000	0.194827	0.205363	1.059822
3804.000000	0.152702	0.134085	2.541647
3806.000000	0.101221	0.100826	2.988434
3808.000000	0.054052	0.053776	3.113543
3810.000000	0.167573	0.179852	9.383802
3812.000000	0.198691	0.187790	4.968572
3814.000000	0.192284	0.174413	4.057275
3816.000000	0.181049	0.154067	2.498894
3818.000000	0.135629	0.145012	1.271432
3820.000000	0.100139	0.101948	1.204458
3822.000000	0.073243	0.066449	0.954758
3824.000000	0.075401	0.073128	0.471043
3826.000000	0.069579	0.059821	2.239345
3828.000000	0.061291	0.052857	0.564374
3830.000000	0.051090	0.049043	0.869066
3832.000000	0.056209	0.057571	1.139768
3834.000000	0.061516	0.062294	1.019932
3836.000000	0.056754	0.049876	1.757947
3838.000000	0.051453	0.049266	4.579131
3840.000000	0.054462	0.057603	1.990476
3842.000000	0.056362	0.054485	1.073359
3844.000000	0.054579	0.057752	2.290557
3846.000000	0.065232	0.060048	1.793066
3848.000000	0.061418	0.062154	3.518775
3850.000000	0.057248	0.057191	2.612150
3852.000000	0.069487	0.073100	2.639068
3854.000000	0.068448	0.064941	5.960386
3856.000000	0.087002	0.082843	3.449865
3858.000000	0.103043	0.105369	4.870190
3860.000000	0.123638	0.110443	4.841846
3862.000000	0.106131	0.117576	1.961808
3864.000000	0.118445	0.110935	1.249182
3866.000000	0.143368	0.144214	0.593554
3868.000000	0.112904	0.117739	2.051992
3870.000000	0.128598	0.114420	1.542898
3872.000000	0.181875	0.202282	1.524742
3874.000000	0.153123	0.154302	5.199199
3876.000000	0.286897	0.293683	8.717252
3878.000000	0.264847	0.268064	8.346265
3880.000000	0.241264	0.206470	13.948960
3882.000000	0.298102	0.304844	8.872592
3884.000000	0.238439	0.230468	5.496605
3886.000000	0.275099	0.295285	8.206579
3888.000000	0.125784	0.124286	3.796743
3890.000000	0.203231	0.187663	9.021352
3892.000000	0.274350	0.254000	21.794627
3894.000000	0.213897	0.202216	19.415876
3896.000000	0.216423	0.212452	39.125748
3898.000000	0.151818	0.169399	26.004134
3900.000000	0.102560	0.095095	45.057960
3902.000000	0.090448	0.088681	31.635607
3904.000000	0.213821	0.240494	39.441724
3906.000000	0.196646	0.200299	27.223260
3908.000000	0.202216	0.195974	35.225440
3910.000000	0.193784	0.178867	19.440380
3912.000000	0.109902	0.112957	14.392899
3914.000000	0.114013	0.109823	21.133407
3916.000000	0.139509	0.137893	12.301266
3918.000000	0.143398	0.138660	5.887218
3920.000000	0.182622	0.202950	4.910738
3922.000000	0.127745	0.140010	16.192086
3924.000000	0.124979	0.129742	20.812216
3926.000000	0.132812	0.126234	21.213288
3928.000000	0.104773	0.102265	16.774006
3930.000000	0.099696	0.086053	30.552373
3932.000000	0.080081	0.081002	50.384000
3934.000000	0.079221	0.075877	16.297832
3936.000000	0.085064	0.082454	31.053706
3938.000000	0.061993	0.057645	43.381043
3940.000000	0.065972	0.061469	29.599827
3942.000000	0.061163	0.060188	15.369358
3944.000000	0.089045	0.082599	13.900433
3946.000000	0.068919	0.066643	14.920378
3948.000000	0.064457	0.063118	4.082078
3950.000000	0.092783	0.090690	1.539298
3952.000000	0.079165	0.082380	3.640228
3954.000000	0.089956	0.080757	1.001392
3956.000000	0.079937	0.090503	3.268772
3958.000000	0.089076	0.091492	2.257071
3960.000000	0.074907	0.072363	3.319370
3962.000000	0.068814	0.068318	7.870580
3964.000000	0.079243	0.087281	15.944889
3966.000000	0.061542	0.059646	34.491701
3968.000000	0.059643	0.058451	17.610169
3970.000000	0.053469	0.057391	6.951805
3972.000000	0.078346	0.075918	0.829926
3974.000000	0.064993	0.068132	11.330765
3976.000000	0.065522	0.062563	7.968935
3978.000000	0.059628	0.059023	18.346065
3980.000000	0.050882	0.053616	36.586231
3982.000000	0.070125	0.068534	34.147565
3984.000000	0.067080	0.070118	22.959030
3986.000000	0.071747	0.066697	54.634189
3988.000000	0.065742	0.064101	44.338742
3990.000000	0.064392	0.062735	32.242175
3992.000000	0.064929	0.071706	25.791739
3994.000000	0.067747	0.075048	18.420929
3996.000000	0.070754	0.069621	34.267506
3998.000000	0.084557	0.071250	21.770205
4000.000000	0.075855	0.072402	14.560914
4002.000000	0.063320	0.058295	17.139413
4004.000000	0.074146	0.074851	11.180466
4006.000000	0.069257	0.073297	20.234767
4008.000000	0.075973	0.075193	25.828279
4010.000000	0.073746	0.076732	26.532479
4012.000000	0.070872	0.071539	11.859896
4014.000000	0.067987	0.066964	12.768888
4016.000000	0.077297	0.082161	20.674721
4018.000000	0.073436	0.075631	2.391864
4020.000000	0.063631	0.067166	7.166338
4022.000000	0.062538	0.062658	0.460672
4024.000000	0.067981	0.065608	1.874949
4026.000000	0.063416	0.063555	1.584202
4028.000000	0.057376	0.061915	2.056049
4030.000000	0.055564	0.053590	2.836089
4032.000000	0.056028	0.054148	1.865645
4034.000000	0.061420	0.062597	5.857448
4036.000000	0.074489	0.078625	5.149332
4038.000000	0.069749	0.069995	1.825355
4040.000000	0.070055	0.068893	3.701310
4042.000000	0.072171	0.071088	3.149760
4044.000000	0.088173	0.083323	1.637570
4046.000000	0.078796	0.077992	5.677257
4048.000000	0.067159	0.062779	1.688478
4050.000000	0.070412	0.069357	2.263086
4052.000000	0.075986	0.079662	4.823721
4054.000000	0.107722	0.095595	17.414136
4056.000000	0.098041	0.105308	8.134023
4058.000000	0.101064	0.096477	10.701716
4060.000000	0.106921	0.109761	10.967923
4062.000000	0.092731	0.107882	8.424119
4064.000000	0.086461	0.088528	7.813064
4066.000000	0.089184	0.080806	3.699522
4068.000000	0.113850	0.119380	11.842782
4070.000000	0.163258	0.166352	8.791276
4072.000000	0.160590	0.168827	0.545275
4074.000000	0.172497	0.182243	6.195957
4076.000000	0.147022	0.153776	4.656940
4078.000000	0.141331	0.125032	3.988599
4080.000000	0.181576	0.188825	2.095576
4082.000000	0.317352	0.301398	4.691389
4084.000000	0.369797	0.403348	3.296969
4086.000000	0.421795	0.434148	3.982006
4088.000000	0.389952	0.417886	3.163766
4090.000000	0.431011	0.472726	1.832621
4092.000000	0.290799	0.291679	4.173596
4094.000000	0.263432	0.241447	3.331627
4096.000000	0.211970	0.228286	6.478430
4098.000000	0.184031	0.187928	3.731558
4100.000000	0.148973	0.144709	8.991803
4102.000000	0.120272	0.128293	16.314264
4104.000000	0.109782	0.115845	11.974525
4106.000000	0.091144	0.092620	9.805095
4108.000000	0.096166	0.091294	16.822019
4110.000000	0.091963	0.093173	7.868383
4112.000000	0.246050	0.242397	5.852583
4114.000000	0.270492	0.255543	7.358766
4116.000000	0.249744	0.251915	21.995897
4118.000000	0.410808	0.453333	9.943828
4120.000000	0.367940	0.340504	21.233678
4122.000000	0.440808	0.476302	21.406392
4124.000000	0.374054	0.372514	25.829987
4126.000000	0.355663	0.358569	33.993935
4128.000000	0.206916	0.199634	31.607215
4130.000000	0.179744	0.208457	43.809905
4132.000000	0.226808	0.213964	65.805700
4134.000000	0.235189	0.218966	14.452587
4136.000000	0.182481	0.178665	13.397590
4138.000000	0.129396	0.134427	1.247018
4140.000000	0.127618	0.132294	3.349201
4142.000000	0.135705	0.145155	2.438167
4144.000000	0.127078	0.118171	7.084324
4146.000000	0.094934	0.091018	18.349264
4148.000000	0.092150	0.089497	30.029618
4150.000000	0.079332	0.075966	25.117786
4152.000000	0.096002	0.093773	19.779643
4154.000000	0.082690	0.082924	39.187990
4156.000000	0.067382	0.072246	35.798682
4158.000000	0.085590	0.079630	56.659920
4160.000000	0.069662	0.068840	42.258895
4162.000000	0.063717	0.063443	46.255514
4164.000000	0.067173	0.063843	114.218392
4166.000000	0.067686	0.073106	203.916969
4168.000000	0.070192	0.072677	97.752953
4170.000000	0.063708	0.062012	60.957434
4172.000000	0.063413	0.066542	84.584020
4174.000000	0.061370	0.067160	79.214374
4176.000000	0.060810	0.060082	31.447620
4178.000000	0.055930	0.052843	49.959954
4180.000000	0.058271	0.055267	64.859280
4182.000000	0.056604	0.055763	31.514625
4184.000000	0.056023	0.059354	23.443952
4186.000000	0.052838	0.048776	57.871000
4188.000000	0.057315	0.053383	98.906579
4190.000000	0.057480	0.054459	84.455518
4192.000000	0.061823	0.067809	83.548595
4194.000000	0.059197	0.065208	128.212175
4196.000000	0.059698	0.051104	133.357730
4198.000000	0.055082	0.064303	84.099052
4200.000000	0.058544	0.052216	76.028181
4202.000000	0.063119	0.055447	49.542100
4204.000000	0.051439	0.048502	54.545920
4206.000000	0.056556	0.059500	18.156256
4208.000000	0.060307	0.064734	20.658799
4210.000000	0.057851	0.052298	20.453473
4212.000000	0.061700	0.061568	24.541463
4214.000000	0.063080	0.062037	40.379501
4216.000000	0.054264	0.053954	47.734764
4218.000000	0.063882	0.062766	62.936635
4220.000000	0.061333	0.060633	41.521122
4222.000000	0.050744	0.052839	58.251134
4224.000000	0.057137	0.055071	77.763793
4226.000000	0.068843	0.064901	22.355602
4228.000000	0.058481	0.056758	28.897540
4230.000000	0.058016	0.050899	24.912512
4232.000000	0.059904	0.063336	54.506881
4234.000000	0.061030	0.061823	23.460163
4236.000000	0.064263	0.060114	38.126558
4238.000000	0.055915	0.047794	35.419435
4240.000000	0.053846	0.051497	10.336788
4242.000000	0.053128	0.055778	8.296157
4244.000000	0.055486	0.054895	9.513669
4246.000000	0.059112	0.059553	2.417099
4248.000000	0.062165	0.066463	5.653466
4250.000000	0.056466	0.058301	17.183660
4252.000000	0.060614	0.064874	14.694910
4254.000000	0.060840	0.062094	14.543524
4256.000000	0.059404	0.056227	19.040627
4258.000000	0.061363	0.061263	20.430005
4260.000000	0.057837	0.062076	33.763212
4262.000000	0.057070	0.059805	17.953956
4264.000000	0.054710	0.054535	23.967054
4266.000000	0.060975	0.058869	34.223822
4268.000000	0.066083	0.072492	11.628341
4270.000000	0.058473	0.064167	10.080463
4272.000000	0.065087	0.064658	6.226259
4274.000000	0.059508	0.054294	8.791149
4276.000000	0.071227	0.068566	4.746103
4278.000000	0.069036	0.061671	10.905601
4280.000000	0.067668	0.059379	6.453574
4282.000000	0.072496	0.070500	10.324038
4284.000000	0.068753	0.073961	2.879232
4286.000000	0.066038	0.061380	1.711327
4288.000000	0.072349	0.071467	5.485935
4290.000000	0.080579	0.078995	2.362259
4292.000000	0.073273	0.074605	1.889355
4294.000000	0.063813	0.068168	0.342834
4296.000000	0.073913	0.064622	5.858528
4298.000000	0.065841	0.064176	10.588598
4300.000000	0.081557	0.081330	5.458978
4302.000000	0.071716	0.070540	5.155357
4304.000000	0.081780	0.080357	1.145329
4306.000000	0.068362	0.067738	4.074599
4308.000000	0.070390	0.067084	4.297293
4310.000000	0.062308	0.067393	5.922785
4312.000000	0.057917	0.052766	1.758144
4314.000000	0.063723	0.064399	2.215605
4316.000000	0.070169	0.066244	5.794212
4318.000000	0.061176	0.061489	2.100843
4320.000000	0.066873	0.063694	2.916015
4322.000000	0.065148	0.060740	6.011929
4324.000000	0.057148	0.052812	3.330967
4326.000000	0.058790	0.057626	5.953799
4328.000000	0.056357	0.058195	4.110949
4330.000000	0.051555	0.050162	7.039057
4332.000000	0.062119	0.062010	4.399403
4334.000000	0.067109	0.065426	3.764061
4336.000000	0.063755	0.065775	5.939955
4338.000000	0.064590	0.070220	1.336005
4340.000000	0.059662	0.052143	3.566562
4342.000000	0.048456	0.046003	3.805209
4344.000000	0.058237	0.054094	0.421826
4346.000000	0.054932	0.054035	2.921977
4348.000000	0.052035	0.057043	4.744298
4350.000000	0.064984	0.062366	4.080755
4352.000000	0.055660	0.053433	3.030484
4354.000000	0.049740	0.050750	2.693524
4356.000000	0.054204	0.054856	3.727724
4358.000000	0.054958	0.056589	2.843661
4360.000000	0.045351	0.044395	6.207368
4362.000000	0.059980	0.062893	3.644508
4364.000000	0.048196	0.048880	5.789396
4366.000000	0.051175	0.045865	1.016729
4368.000000	0.060358	0.055726	2.683913
4370.000000	0.054505	0.054463	4.394219
4372.000000	0.059105	0.057910	0.671204
4374.000000	0.050215	0.052941	11.088058
4376.000000	0.060802	0.063006	13.872689
4378.000000	0.055382	0.051361	11.347906
4380.000000	0.063531	0.062382	15.829936
4382.000000	0.063728	0.058671	3.800441
4384.000000	0.052826	0.052914	5.876577
4386.000000	0.064044	0.060562	8.613640
4388.000000	0.060821	0.060342	3.676772
4390.000000	0.060964	0.059618	2.071454
4392.000000	0.067013	0.067677	2.248114
4394.000000	0.055365	0.052876	0.955982
4396.000000	0.058726	0.053871	6.975727
4398.000000	0.055782	0.059496	12.396087
4400.000000	0.057450	0.060723	17.639266
4402.000000	0.061945	0.069037	11.900643
4404.000000	0.049196	0.052217	23.745579
4406.000000	0.057927	0.060330	5.506696
4408.000000	0.056779	0.056660	9.467992
4410.000000	0.051194	0.046563	8.555671
4412.000000	0.058223	0.059126	8.260417
4414.000000	0.055074	0.057799	2.790360
4416.000000	0.068663	0.074978	6.401514
4418.000000	0.060945	0.065390	2.420260
4420.000000	0.066518	0.064683	3.763149
4422.000000	0.060769	0.056263	3.821267
4424.000000	0.061823	0.065092	2.266212
4426.000000	0.052940	0.053331	2.691186
4428.000000	0.068171	0.068477	3.338423
4430.000000	0.071178	0.073870	2.698457
4432.000000	0.071810	0.068229	3.722568
4434.000000	0.059849	0.064151	4.134162
4436.000000	0.078835	0.071339	6.348281
4438.000000	0.101293	0.099681	16.976593
4440.000000	0.088910	0.098979	8.342893
4442.000000	0.096985	0.094702	14.643926
4444.000000	0.109716	0.118519	48.465834
4446.000000	0.121014	0.128812	31.912881
4448.000000	0.126993	0.123977	13.425970
4450.000000	0.115433	0.109287	8.596776
4452.000000	0.098304	0.099127	30.605661
4454.000000	0.091098	0.084658	7.402153
4456.000000	0.119887	0.128228	5.175094
4458.000000	0.139924	0.125558	9.736961
4460.000000	0.156412	0.145893	10.234003
4462.000000	0.209415	0.186584	7.898349
4464.000000	0.210517	0.230017	12.995480
4466.000000	0.287826	0.278409	15.174560
4468.000000	0.306299	0.300374	4.842012
4470.000000	0.347810	0.356431	4.014345
4472.000000	0.452184	0.433190	2.306978
4474.000000	0.476629	0.471648	3.848544
4476.000000	0.476815	0.460463	10.894745
4478.000000	0.508660	0.499982	3.150580
4480.000000	0.570642	0.580194	4.723578
4482.000000	0.458130	0.460128	4.285974
4484.000000	0.350003	0.330523	3.125133
4486.000000	0.338385	0.378166	3.712088
4488.000000	0.349665	0.323430	14.504278
4490.000000	0.227825	0.213302	7.410721
4492.000000	0.157832	0.173020	5.050964
4494.000000	0.143406	0.142473	7.795489
4496.000000	0.114274	0.118172	6.248800
4498.000000	0.129679	0.123544	3.625505
4500.000000	0.112651	0.109232	5.464826
4502.000000	0.092532	0.093521	3.546859
4504.000000	0.085371	0.082347	3.416874
4506.000000	0.092272	0.088075	3.316613
4508.000000	0.096819	0.094423	7.171936
4510.000000	0.088848	0.086629	11.985292
4512.000000	0.078241	0.076488	3.765858
4514.000000	0.075334	0.078558	5.013477
4516.000000	0.070831	0.068906	15.248739
4518.000000	0.056210	0.048061	4.774630
4520.000000	0.063169	0.064508	4.777044
4522.000000	0.057795	0.062434	3.038468
4524.000000	0.056008	0.056159	6.558303
4526.000000	0.053401	0.054750	5.508423
4528.000000	0.046226	0.047291	3.401790
4530.000000	0.046985	0.045796	7.959665
4532.000000	0.046318	0.050257	15.622158
4534.000000	0.053314	0.055058	2.944018
4536.000000	0.056589	0.056047	4.039537
4538.000000	0.048182	0.046405	0.851431
4540.000000	0.058632	0.053557	3.233317
4542.000000	0.060482	0.059641	3.748232
4544.000000	0.054894	0.055559	9.306045
4546.000000	0.056084	0.056528	2.858251
4548.000000	0.052902	0.046434	5.857949
4550.000000	0.050942	0.045945	3.844345
4552.000000	0.052557	0.054950	2.881720
4554.000000	0.057746	0.055665	6.821335
4556.000000	0.052653	0.055404	2.794465
4558.000000	0.049539	0.047016	3.037651
4560.000000	0.046665	0.047566	2.406371
4562.000000	0.048829	0.047421	3.817223
4564.000000	0.053275	0.052730	3.720817
4566.000000	0.044304	0.040576	7.384070
4568.000000	0.039622	0.041816	3.043101
4570.000000	0.047847	0.050997	3.785992
4572.000000	0.050750	0.049333	1.646327
4574.000000	0.049423	0.044162	3.358942
4576.000000	0.047962	0.051777	2.763936
4578.000000	0.055404	0.057147	4.643693
4580.000000	0.043393	0.044466	3.411808
4582.000000	0.045174	0.041978	9.180182
4584.000000	0.049209	0.050494	2.162207
4586.000000	0.044528	0.042566	2.444971
4588.000000	0.050711	0.050261	1.253031
4590.000000	0.052944	0.050382	5.015438
4592.000000	0.054241	0.058172	8.273492
4594.000000	0.051122	0.052474	6.356987
4596.000000	0.067003	0.079161	8.218740
4598.000000	0.062604	0.063067	6.031632
4600.000000	0.069971	0.063622	10.636147
4602.000000	0.049632	0.054681	10.670419
4604.000000	0.047276	0.045190	12.181788
4606.000000	0.043397	0.045103	12.623703
4608.000000	0.052032	0.050653	14.925717
4610.000000	0.041130	0.039168	14.830958
4612.000000	0.041590	0.043589	3.796483
4614.000000	0.042033	0.042022	5.902921
4616.000000	0.050516	0.058517	0.354513
4618.000000	0.040536	0.038216	3.618743
4620.000000	0.038554	0.037406	3.508516
4622.000000	0.042192	0.044908	0.936255
4624.000000	0.042035	0.041749	3.347003
4626.000000	0.041432	0.042042	6.452671
4628.000000	0.039994	0.036953	3.474788
4630.000000	0.044263	0.043000	3.932472
4632.000000	0.046413	0.042391	12.419316
4634.000000	0.044138	0.043481	2.752422
4636.000000	0.041424	0.040025	5.656211
4638.000000	0.047770	0.045619	14.142901
4640.000000	0.043266	0.044904	2.924701
4642.000000	0.040305	0.036678	4.862409
4644.000000	0.037713	0.039776	0.518601
4646.000000	0.044551	0.043664	3.491991
4648.000000	0.050414	0.047766	1.678835
4650.000000	0.041436	0.040437	6.608785
4652.000000	0.044473	0.044369	3.280934
4654.000000	0.046452	0.041330	1.997681
4656.000000	0.050378	0.050666	5.002286
4658.000000	0.050767	0.049573	12.231406
4660.000000	0.050491	0.051434	13.653894
4662.000000	0.054819	0.053638	6.160906
4664.000000	0.058865	0.060602	13.727843
4666.000000	0.070536	0.075903	2.339038
4668.000000	0.066681	0.069216	8.784508
4670.000000	0.082629	0.090273	3.817276
4672.000000	0.075336	0.083630	5.072331
4674.000000	0.070380	0.067305	7.843823
4676.000000	0.057071	0.053000	13.308591
4678.000000	0.041075	0.042557	11.488267
4680.000000	0.039157	0.037142	16.435660
4682.000000	0.039295	0.039929	7.934990
4684.000000	0.042047	0.037015	11.890335
4686.000000	0.044979	0.041762	15.188517
4688.000000	0.044689	0.044906	5.951659
4690.000000	0.045818	0.050285	8.850339
4692.000000	0.050025	0.051070	7.544729
4694.000000	0.042298	0.038389	24.015313
4696.000000	0.044098	0.043820	10.400843
4698.000000	0.042102	0.040673	6.403035
4700.000000	0.050070	0.055432	28.568391
4702.000000	0.044458	0.043454	23.797366
4704.000000	0.044782	0.050272	6.078902
4706.000000	0.046745	0.044269	13.430357
4708.000000	0.044283	0.043143	25.166200
4710.000000	0.042752	0.049493	31.962110
4712.000000	0.042326	0.040041	6.699125
4714.000000	0.044422	0.048337	11.225781
4716.000000	0.039508	0.040000	25.817101
4718.000000	0.042492	0.042676	14.465317
4720.000000	0.038064	0.035958	11.577571
4722.000000	0.039489	0.040167	33.661720
4724.000000	0.041357	0.043715	17.844146
4726.000000	0.040742	0.040459	3.694502
4728.000000	0.036783	0.033602	6.113105
4730.000000	0.037070	0.037910	6.809567
4732.000000	0.036329	0.034065	15.709419
4734.000000	0.042366	0.046095	4.542716
4736.000000	0.037658	0.041332	8.813265
4738.000000	0.037985	0.035181	11.830021
4740.000000	0.038533	0.037777	2.769812
4742.000000	0.036147	0.035284	7.324953
4744.000000	0.039014	0.034346	0.947613
4746.000000	0.038376	0.037604	10.125667
4748.000000	0.038109	0.034916	19.162845
4750.000000	0.038299	0.036667	1.991322
4752.000000	0.035383	0.037190	9.815201
4754.000000	0.038698	0.042846	5.038920
4756.000000	0.039449	0.045818	8.009284
4758.000000	0.033633	0.034623	7.512449
4760.000000	0.042586	0.041745	0.631227
4762.000000	0.043902	0.040545	3.748925
4764.000000	0.042579	0.039061	9.425387
4766.000000	0.040013	0.039834	18.307392
4768.000000	0.045209	0.047301	2.866651
4770.000000	0.037301	0.035955	10.581896
4772.000000	0.042359	0.042557	16.711513
4774.000000	0.036667	0.036432	4.424290
4776.000000	0.039894	0.043736	9.647581
4778.000000	0.042069	0.040529	2.955270
4780.000000	0.039151	0.035504	3.855919
4782.000000	0.037963	0.040541	2.267008
4784.000000	0.041518	0.039925	3.104148
4786.000000	0.038066	0.036358	4.963467
